Sample	2mm tape 
date	07/01/2025
	
Temperature (K)	77.00
Angle (deg.)	0.000000
field / T	0.200000
	
		
Approx. trace time (s)	120.0	
		
Current / A	V1  -sample/ uV	time/s
-0.016258	0.021010	0.000000
-0.016227	0.019006	0.046000
-0.016129	0.016457	0.092000
-0.016129	0.013835	0.138000
-0.016099	0.011276	0.184000
-0.016118	0.008677	0.340000
-0.016185	0.010092	0.386000
-0.016161	0.013565	0.432000
-0.016093	0.011376	0.478000
-0.016130	0.008977	0.524000
-0.015565	0.010370	0.569000
-0.017602	0.022719	0.615000
-0.016732	0.011869	0.661000
-0.016830	0.013464	0.706000
-0.010961	0.014629	0.752000
0.018808	0.011296	0.798000
0.101741	0.021079	0.844000
0.128232	0.019206	0.999000
0.152107	0.017842	1.046000
0.177748	0.027978	1.092000
0.201996	0.034323	1.138000
0.226819	0.036922	1.184000
0.252176	0.041611	1.230000
0.341467	0.040525	1.275000
0.366971	0.050819	1.440000
0.391472	0.055564	1.487000
0.416014	0.055755	1.533000
0.440604	0.061325	1.578000
0.465422	0.061955	1.625000
0.490480	0.064719	1.672000
0.515825	0.066039	1.717000
0.541339	0.064973	1.763000
0.566545	0.068117	1.810000
0.591118	0.066850	1.855000
0.615974	0.072921	1.902000
0.814936	0.089147	1.948000
0.838976	0.087670	2.315000
0.936921	0.089933	2.361000
0.961316	0.088767	2.540000
0.986343	0.089632	2.587000
1.011147	0.089137	2.633000
1.036301	0.091019	2.679000
1.061507	0.087015	2.725000
1.086779	0.091149	2.771000
1.111775	0.087330	2.817000
1.136680	0.093421	2.863000
1.161646	0.097671	2.908000
1.185909	0.104628	2.955000
1.211217	0.103511	3.001000
1.295551	0.128654	3.048000
1.320586	0.134866	3.202000
1.345680	0.136062	3.249000
1.370499	0.140836	3.294000
1.394907	0.145691	3.340000
1.419512	0.153890	3.387000
1.445089	0.150391	3.433000
1.647682	0.150521	3.480000
1.672066	0.206825	3.853000
1.696976	0.217835	3.899000
1.721648	0.226148	3.945000
1.747361	0.231575	3.991000
1.772149	0.241889	4.038000
1.797861	0.248926	4.083000
1.884937	0.290001	4.129000
1.910032	0.300371	4.291000
1.935359	0.307043	4.338000
1.960784	0.316737	4.383000
1.984870	0.325133	4.430000
2.009518	0.331195	4.476000
2.034753	0.340375	4.522000
2.127789	0.350734	4.569000
2.153344	0.388469	4.740000
2.177912	0.393711	4.786000
2.203720	0.402253	4.832000
2.228071	0.412421	4.878000
2.252171	0.421261	4.924000
2.277405	0.428049	4.970000
2.302346	0.441801	5.017000
2.327920	0.448262	5.063000
2.352973	0.460160	5.109000
2.378110	0.468563	5.156000
2.403443	0.471826	5.202000
2.487508	0.505714	5.248000
2.512860	0.508782	5.404000
2.537205	0.519967	5.451000
2.562652	0.528260	5.497000
2.587405	0.537489	5.542000
2.612387	0.544345	5.589000
2.637856	0.553865	5.634000
2.723830	0.561898	5.680000
2.749236	0.585155	5.840000
2.761154	0.595045	5.887000
2.798338	0.601891	5.932000
2.822742	0.600836	5.979000
2.847682	0.606271	6.024000
2.873042	0.607522	6.070000
2.897958	0.604995	6.116000
2.922753	0.613158	6.161000
2.947282	0.618908	6.206000
2.971092	0.627917	6.252000
2.996013	0.634268	6.298000
3.080608	0.660728	6.343000
3.106038	0.668530	6.500000
3.130840	0.672619	6.545000
3.156143	0.686494	6.591000
3.180214	0.696384	6.637000
3.205019	0.700721	6.683000
3.229946	0.710617	6.729000
3.319612	0.723854	6.776000
3.344336	0.746632	6.940000
3.369069	0.759430	6.987000
3.394206	0.761839	7.033000
3.418982	0.768915	7.079000
3.444726	0.776382	7.125000
3.469722	0.789744	7.171000
3.495110	0.797085	7.217000
3.519694	0.804422	7.263000
3.544009	0.814376	7.310000
3.568968	0.821653	7.356000
3.593939	0.828180	7.402000
3.792701	0.861726	7.447000
3.818150	0.865730	7.816000
3.914409	0.876728	7.862000
3.939890	0.893119	8.039000
3.965155	0.898518	8.086000
3.990145	0.900909	8.132000
4.015194	0.908812	8.178000
4.040313	0.917004	8.225000
4.065284	0.919928	8.271000
4.089960	0.921649	8.317000
4.114688	0.925127	8.364000
4.140186	0.931699	8.410000
4.165293	0.958610	8.456000
4.189959	0.930313	8.502000
4.274645	0.956448	8.548000
4.299297	0.950608	8.703000
4.324489	0.956718	8.750000
4.348763	0.956818	8.796000
4.374384	0.962679	8.842000
4.399321	0.965386	8.889000
4.424353	0.968369	8.935000
4.625248	0.971227	8.981000
4.650588	0.996396	9.353000
4.675768	0.998839	9.398000
4.701003	1.001842	9.445000
4.726115	1.007457	9.491000
4.751285	1.006241	9.537000
4.776310	1.005410	9.583000
4.864040	1.012848	9.629000
4.888545	1.012628	9.792000
4.913408	1.011027	9.837000
4.937472	1.009209	9.884000
4.962765	1.002968	9.929000
4.987843	1.003789	9.976000
5.012790	1.005751	10.022000
5.106794	1.002062	10.067000
5.132275	0.988829	10.240000
5.157156	0.980787	10.287000
5.181778	0.981852	10.333000
5.206493	0.981832	10.380000
5.231586	0.969836	10.426000
5.257198	0.970482	10.472000
5.282028	0.967213	10.517000
5.307018	0.963355	10.564000
5.332106	0.958109	10.610000
5.356562	0.952700	10.656000
5.381370	0.950658	10.702000
5.465235	0.944656	10.748000
5.490177	0.932685	10.903000
5.515973	0.930032	10.949000
5.540810	0.928686	10.995000
5.565782	0.922380	11.041000
5.590415	0.914903	11.088000
5.615452	0.914843	11.134000
5.702000	0.908177	11.180000
5.726580	0.899097	11.340000
5.751711	0.894699	11.386000
5.776787	0.885814	11.431000
5.801868	0.885884	11.477000
5.826532	0.873359	11.523000
5.852024	0.878157	11.569000
5.875867	0.867878	11.615000
5.900487	0.870916	11.660000
5.925037	0.868672	11.706000
5.950018	0.863270	11.752000
5.975019	0.858242	11.797000
6.095525	0.811720	11.843000
6.120489	0.810974	12.066000
6.145547	0.805318	12.112000
6.169900	0.800950	12.158000
6.194650	0.799150	12.204000
6.219949	0.796423	12.250000
6.303841	0.789197	12.296000
6.329151	0.766035	12.451000
6.354275	0.751882	12.497000
6.378678	0.756169	12.543000
6.403394	0.745610	12.589000
6.427980	0.737369	12.634000
6.453264	0.731697	12.681000
6.478070	0.727479	12.727000
6.503390	0.720154	12.773000
6.528666	0.712757	12.819000
6.554147	0.703081	12.866000
6.765122	0.649943	12.912000
6.790708	0.646675	13.304000
6.815493	0.645099	13.350000
6.936055	0.640299	13.396000
6.961664	0.628973	13.618000
6.986372	0.623864	13.664000
7.011210	0.613298	13.711000
7.035532	0.613804	13.757000
7.060350	0.602604	13.803000
7.085781	0.603994	13.849000
7.110814	0.600456	13.895000
7.136110	0.598464	13.941000
7.161440	0.591327	13.988000
7.246830	0.574431	14.034000
7.271856	0.568040	14.192000
7.295904	0.563745	14.238000
7.320652	0.564001	14.283000
7.345668	0.563575	14.330000
7.371289	0.564712	14.376000
7.396202	0.566292	14.421000
7.605008	0.564792	14.467000
7.630059	0.567314	14.852000
7.654957	0.567659	14.898000
7.680181	0.569801	14.944000
7.704430	0.570161	14.991000
7.729353	0.556239	15.037000
7.754091	0.567264	15.083000
7.842195	0.577504	15.129000
7.867252	0.575432	15.291000
7.892235	0.574660	15.337000
7.917253	0.573750	15.383000
7.942488	0.573014	15.429000
7.967344	0.568259	15.476000
7.992431	0.568199	15.521000
8.085547	0.566097	15.567000
8.109676	0.571107	15.740000
8.135182	0.571007	15.786000
8.160062	0.572884	15.832000
8.185359	0.575261	15.878000
8.210812	0.579695	15.925000
8.235883	0.587083	15.970000
8.261220	0.582569	16.016000
8.285918	0.581212	16.064000
8.310229	0.587363	16.109000
8.334727	0.590371	16.155000
8.359993	0.591587	16.201000
8.444578	0.606998	16.247000
8.470018	0.605240	16.403000
8.494777	0.615795	16.450000
8.519376	0.623433	16.495000
8.543845	0.630945	16.540000
8.568722	0.637747	16.587000
8.593926	0.638562	16.633000
8.681047	0.646120	16.680000
8.706036	0.667070	16.840000
8.731154	0.670207	16.886000
8.756146	0.679651	16.932000
8.781455	0.684489	16.978000
8.805466	0.684950	17.024000
8.829613	0.696264	17.069000
8.854523	0.703121	17.115000
8.879506	0.706373	17.161000
8.904453	0.713345	17.206000
8.929412	0.718558	17.251000
8.954323	0.719852	17.297000
9.037262	0.729596	17.342000
9.062459	0.729107	17.498000
9.087455	0.730021	17.544000
9.112359	0.727903	17.590000
9.137907	0.727468	17.637000
9.162932	0.723315	17.683000
9.187975	0.721820	17.729000
9.276708	0.729137	17.775000
9.301815	0.714664	17.940000
9.327330	0.715145	17.986000
9.351938	0.712786	18.032000
9.376417	0.708309	18.078000
9.401046	0.706694	18.124000
9.426025	0.699387	18.170000
9.451653	0.697038	18.216000
9.476348	0.690653	18.262000
9.501535	0.689338	18.308000
9.526337	0.689727	18.354000
9.551499	0.690142	18.400000
9.750520	0.689667	18.447000
9.775571	0.685854	18.814000
9.873161	0.692731	18.861000
9.898500	0.709333	19.040000
9.922822	0.707064	19.087000
9.947527	0.716858	19.132000
9.972762	0.714480	19.179000
9.997494	0.719552	19.225000
10.022957	0.724219	19.271000
10.047824	0.730712	19.317000
10.073294	0.730502	19.363000
10.098418	0.729807	19.410000
10.122546	0.734324	19.456000
10.146923	0.739161	19.502000
10.231510	0.742487	19.547000
10.257113	0.742366	19.703000
10.282035	0.740731	19.750000
10.307448	0.740942	19.796000
10.332680	0.737947	19.842000
10.357362	0.739777	19.889000
10.382353	0.742850	19.934000
10.583822	0.748228	19.981000
10.608847	0.755653	20.352000
10.632590	0.760032	20.398000
10.657567	0.764149	20.444000
10.682151	0.765303	20.489000
10.707659	0.763285	20.535000
10.732437	0.768651	20.582000
10.820898	0.779104	20.627000
10.846444	0.778891	20.792000
10.871709	0.776673	20.838000
10.896507	0.780096	20.884000
10.921675	0.782229	20.930000
10.947118	0.784042	20.977000
10.971118	0.788659	21.023000
11.063696	0.785066	21.068000
11.088890	0.798410	21.240000
11.113631	0.801370	21.285000
11.139081	0.796432	21.332000
11.164169	0.805977	21.378000
11.188717	0.806431	21.424000
11.212628	0.808366	21.470000
11.237779	0.812503	21.516000
11.262914	0.813577	21.562000
11.287791	0.817411	21.607000
11.312939	0.818174	21.654000
11.338100	0.826896	21.700000
11.422023	0.841507	21.746000
11.446281	0.840192	21.901000
11.471779	0.845475	21.947000
11.497211	0.844822	21.994000
11.522071	0.857868	22.040000
11.547166	0.857918	22.086000
11.572133	0.863402	22.132000
11.660220	0.868723	22.178000
11.685139	0.887723	22.340000
11.710375	0.890112	22.386000
11.735360	0.900379	22.433000
11.759319	0.900479	22.478000
11.783477	0.907536	22.524000
11.808762	0.909192	22.569000
11.833843	0.913887	22.616000
11.858796	0.918191	22.661000
11.883536	0.921910	22.706000
11.907985	0.923006	22.752000
11.932108	0.928111	22.798000
12.016554	0.939512	22.844000
12.042113	0.934847	23.000000
12.067588	0.939723	23.046000
12.092457	0.941954	23.092000
12.117626	0.946659	23.139000
12.142264	0.947585	23.184000
12.166671	0.945994	23.230000
12.255945	0.951694	23.277000
12.280663	0.964111	23.440000
12.304945	0.972544	23.486000
12.329544	0.971023	23.532000
12.355087	0.978714	23.578000
12.380384	0.980656	23.624000
12.405520	0.985216	23.670000
12.430720	0.981862	23.717000
12.456002	0.987037	23.763000
12.481220	0.987663	23.810000
12.504945	0.991612	23.855000
12.529572	0.998548	23.901000
12.729150	1.021887	23.946000
12.753951	1.022608	24.316000
12.850556	1.026671	24.362000
12.875698	1.050734	24.540000
12.900769	1.055168	24.586000
12.925880	1.057391	24.632000
12.951183	1.059632	24.678000
12.976313	1.063782	24.724000
13.001435	1.068276	24.771000
13.026439	1.075022	24.817000
13.050778	1.076288	24.863000
13.074912	1.083666	24.908000
13.100424	1.089852	24.954000
13.125654	1.091608	25.001000
13.210167	1.120321	25.046000
13.235806	1.119237	25.203000
13.260482	1.121710	25.250000
13.285204	1.127139	25.296000
13.309941	1.131060	25.342000
13.334896	1.134295	25.388000
13.360064	1.136912	25.433000
13.561556	1.139201	25.480000
13.586680	1.173378	25.853000
13.611654	1.179340	25.899000
13.636861	1.186862	25.945000
13.662390	1.194359	25.992000
13.687196	1.199067	26.037000
13.712589	1.206293	26.083000
13.799927	1.232252	26.130000
13.825224	1.232927	26.292000
13.850177	1.246599	26.338000
13.874071	1.250008	26.383000
13.898691	1.258503	26.429000
13.923386	1.259608	26.475000
13.949149	1.264966	26.521000
14.042693	1.274834	26.567000
14.067723	1.293484	26.740000
14.092747	1.294245	26.786000
14.117477	1.298302	26.832000
14.141783	1.302196	26.879000
14.166511	1.304204	26.924000
14.192115	1.311861	26.971000
14.216975	1.303939	27.016000
14.242055	1.307193	27.062000
14.267524	1.309212	27.108000
14.292540	1.307737	27.155000
14.316551	1.310717	27.201000
14.400691	1.311881	27.246000
14.425803	1.316118	27.403000
14.451435	1.316559	27.449000
14.476174	1.321256	27.495000
14.501176	1.318397	27.541000
14.526585	1.319701	27.587000
14.550462	1.316068	27.633000
14.638674	1.318897	27.679000
14.663350	1.318677	27.840000
14.687982	1.315453	27.887000
14.712947	1.315064	27.933000
14.738328	1.317032	27.979000
14.763429	1.316882	28.025000
14.788157	1.316228	28.071000
14.812906	1.314449	28.117000
14.837560	1.317012	28.161000
14.861688	1.313960	28.207000
14.886611	1.315898	28.253000
14.911029	1.315094	28.299000
14.997047	1.314973	28.344000
15.022649	1.313849	28.501000
15.047333	1.311561	28.547000
15.071948	1.315533	28.593000
15.096272	1.312244	28.639000
15.121550	1.315868	28.684000
15.145983	1.317212	28.731000
15.234503	1.314523	28.777000
15.259338	1.313144	28.940000
15.284343	1.316058	28.986000
15.309461	1.314079	29.032000
15.334824	1.312415	29.078000
15.360384	1.306683	29.125000
15.385060	1.309392	29.171000
15.410304	1.310785	29.217000
15.434418	1.306793	29.263000
15.459273	1.315493	29.309000
15.484348	1.317372	29.356000
15.509288	1.315003	29.402000
15.709154	1.317743	29.448000
15.734513	1.314408	29.816000
15.830433	1.315633	29.863000
15.855644	1.318577	30.040000
15.880928	1.311200	30.086000
15.905713	1.306923	30.132000
15.930935	1.305178	30.179000
15.955686	1.304264	30.225000
15.979725	1.300480	30.271000
16.004912	1.297358	30.317000
16.029887	1.294394	30.362000
16.055249	1.291156	30.409000
16.080301	1.289518	30.455000
16.105211	1.287578	30.500000
16.189539	1.279553	30.547000
16.213969	1.277414	30.703000
16.238817	1.274021	30.749000
16.263959	1.272817	30.795000
16.289213	1.275155	30.841000
16.314455	1.272426	30.888000
16.339426	1.276799	30.933000
16.540798	1.281677	30.980000
16.566167	1.293290	31.352000
16.591063	1.292941	31.399000
16.616161	1.291737	31.445000
16.641286	1.297499	31.490000
16.665833	1.299427	31.536000
16.690358	1.302675	31.583000
16.778751	1.313909	31.629000
16.803618	1.313204	31.791000
16.828075	1.310657	31.837000
16.853463	1.311771	31.884000
16.878736	1.314643	31.930000
16.903864	1.315224	31.976000
16.929383	1.312334	32.022000
17.022097	1.312000	32.068000
17.046527	1.310925	32.240000
17.071364	1.304625	32.286000
17.096366	1.300237	32.332000
17.121627	1.298442	32.378000
17.146744	1.298462	32.424000
17.171735	1.285424	32.470000
17.196717	1.277884	32.516000
17.221644	1.275415	32.562000
17.246376	1.273335	32.609000
17.270653	1.267523	32.654000
17.295675	1.260098	32.700000
17.380661	1.247539	32.746000
17.406165	1.239654	32.903000
17.431199	1.229325	32.949000
17.456172	1.238084	32.994000
17.480640	1.236830	33.041000
17.505022	1.235127	33.087000
17.530016	1.230589	33.133000
17.616941	1.225331	33.179000
17.642035	1.214258	33.340000
17.667679	1.208256	33.386000
17.692915	1.210344	33.432000
17.718038	1.203113	33.479000
17.742587	1.199760	33.524000
17.767391	1.199195	33.570000
17.791663	1.199710	33.616000
17.816058	1.195373	33.661000
17.840946	1.195163	33.707000
17.865954	1.195363	33.752000
17.890950	1.192159	33.798000
17.975395	1.195143	33.843000
18.000119	1.188407	34.000000
18.025109	1.189870	34.047000
18.049934	1.189321	34.093000
18.074875	1.193215	34.139000
18.100574	1.191369	34.185000
18.125590	1.191820	34.231000
18.213191	1.189271	34.277000
18.238631	1.190365	34.440000
18.264019	1.189411	34.487000
18.289165	1.187303	34.532000
18.313777	1.191085	34.578000
18.338767	1.186487	34.625000
18.363114	1.190954	34.671000
18.388300	1.192060	34.717000
18.413306	1.191429	34.764000
18.438389	1.192584	34.810000
18.463894	1.192010	34.856000
18.489420	1.192209	34.903000
18.688159	1.228080	34.949000
18.713551	1.232262	35.317000
18.809786	1.233276	35.363000
18.834442	1.258363	35.540000
18.859350	1.265880	35.587000
18.884229	1.269423	35.633000
18.908495	1.271431	35.678000
18.933747	1.277203	35.725000
18.958649	1.286638	35.771000
18.984423	1.287652	35.817000
19.009464	1.291676	35.863000
19.034518	1.296614	35.909000
19.059220	1.300921	35.955000
19.083669	1.307577	36.001000
19.167943	1.315513	36.047000
19.192877	1.319441	36.202000
19.217866	1.318146	36.248000
19.243239	1.326354	36.294000
19.268500	1.327881	36.341000
19.293373	1.330783	36.387000
19.318097	1.332465	36.434000
19.520341	1.338195	36.479000
19.545631	1.353384	36.852000
19.570829	1.349591	36.899000
19.594939	1.353284	36.945000
19.619582	1.354025	36.992000
19.645001	1.357944	37.038000
19.669893	1.362078	37.084000
19.757306	1.365297	37.131000
19.781981	1.360277	37.292000
19.807615	1.362509	37.338000
19.832734	1.357774	37.384000
19.857907	1.365002	37.430000
19.882863	1.370401	37.476000
19.907533	1.368250	37.522000
20.000094	1.372714	37.568000
20.025403	1.371157	37.740000
20.050693	1.371608	37.787000
20.076008	1.376633	37.832000
20.100885	1.375176	37.878000
20.125941	1.383309	37.925000
20.150791	1.385341	37.971000
20.175315	1.383550	38.017000
20.200013	1.385190	38.063000
20.225217	1.389450	38.110000
20.249952	1.389680	38.155000
20.275463	1.392928	38.202000
20.360254	1.400146	38.248000
20.385419	1.397082	38.403000
20.410089	1.407101	38.450000
20.434320	1.408719	38.496000
20.459042	1.410260	38.542000
20.484633	1.412912	38.588000
20.509568	1.422481	38.634000
20.596076	1.419243	38.680000
20.621299	1.426220	38.840000
20.646376	1.426260	38.886000
20.671409	1.429563	38.931000
20.695865	1.429163	38.977000
20.719474	1.435194	39.023000
20.744866	1.433282	39.068000
20.769279	1.440259	39.114000
20.794477	1.442111	39.160000
20.819142	1.442061	39.205000
20.843658	1.442532	39.251000
20.868247	1.444813	39.297000
20.952302	1.455718	39.343000
20.977502	1.457210	39.498000
21.002950	1.459377	39.544000
21.028077	1.461690	39.590000
21.053044	1.469762	39.636000
21.077504	1.473130	39.682000
21.102170	1.475142	39.729000
21.191932	1.480077	39.775000
21.217439	1.499045	39.940000
21.242234	1.502463	39.986000
21.266465	1.505641	40.033000
21.291321	1.509530	40.079000
21.316329	1.515712	40.125000
21.341742	1.515642	40.171000
21.366654	1.517563	40.217000
21.392392	1.527092	40.263000
21.417284	1.527112	40.309000
21.442178	1.535828	40.355000
21.466533	1.537201	40.401000
21.665965	1.576483	40.447000
21.690615	1.579221	40.815000
21.787577	1.581251	40.861000
21.812012	1.580970	41.039000
21.836972	1.578782	41.086000
21.862085	1.581840	41.131000
21.886983	1.575158	41.177000
21.912690	1.583759	41.223000
21.937621	1.575238	41.270000
21.962560	1.581251	41.316000
21.987055	1.584068	41.362000
22.011544	1.582894	41.408000
22.036553	1.586457	41.454000
22.061354	1.579575	41.500000
22.146258	1.587722	41.546000
22.171536	1.580575	41.703000
22.196669	1.584513	41.748000
22.220995	1.584593	41.794000
22.245353	1.580565	41.840000
22.270578	1.582834	41.886000
22.295889	1.586128	41.932000
22.498711	1.595363	41.978000
22.523465	1.601045	42.352000
22.548506	1.602479	42.399000
22.573206	1.600221	42.444000
22.598174	1.602989	42.490000
22.623468	1.601584	42.536000
22.648412	1.608001	42.582000
22.736775	1.604758	42.628000
22.761943	1.601714	42.791000
22.786872	1.600985	42.838000
22.812156	1.598646	42.883000
22.836380	1.597892	42.930000
22.860721	1.601704	42.975000
22.885629	1.600420	43.021000
22.979940	1.600101	43.068000
23.004813	1.596826	43.240000
23.030331	1.594802	43.287000
23.055305	1.595772	43.333000
23.080072	1.600410	43.379000
23.104183	1.600764	43.425000
23.128835	1.603163	43.471000
23.154342	1.604258	43.517000
23.179298	1.605197	43.563000
23.204777	1.604948	43.609000
23.229533	1.612284	43.655000
23.254727	1.618136	43.701000
23.338319	1.638689	43.747000
