Sample	2mm tape 
date	08/01/2025
	
Temperature (K)	77.00
Angle (deg.)	0.000000
field / T	0.150000
	
		
Approx. trace time (s)	120.0	
		
Current / A	V1  -sample/ uV	time/s
-0.016050	1.836252	0.000000
-0.016081	1.833614	0.046000
-0.016235	1.850597	0.092000
-0.016093	1.850638	0.465000
-0.016118	1.853878	0.512000
-0.016013	1.853580	0.558000
-0.006931	1.853979	0.603000
-0.016578	1.857330	0.650000
-0.016278	1.854202	0.696000
-0.015921	1.847807	0.742000
-0.016278	1.847105	0.787000
-0.015964	1.843480	0.834000
-0.016259	1.844325	0.880000
-0.016026	1.840089	0.926000
-0.016595	1.839346	0.971000
-0.016080	1.832678	1.137000
0.078897	1.827735	1.184000
0.104699	1.824970	1.354000
0.128224	1.825308	1.400000
0.154165	1.824515	1.446000
0.180627	1.822513	1.493000
0.204130	1.820017	1.539000
0.229555	1.822680	1.585000
0.254028	1.816625	1.631000
0.279491	1.814840	1.677000
0.304504	1.810645	1.723000
0.329254	1.806292	1.768000
0.353984	1.804892	1.815000
0.378584	1.802628	1.860000
0.404378	1.799762	1.907000
0.429103	1.796669	1.953000
0.454540	1.791558	1.999000
0.479357	1.795835	2.045000
0.562673	1.794535	2.092000
0.587992	1.789865	2.246000
0.674315	1.788970	2.293000
0.699716	1.789522	2.453000
0.724784	1.791195	2.500000
0.749939	1.789512	2.546000
0.774957	1.786636	2.592000
0.800549	1.788455	2.637000
0.825414	1.788616	2.684000
0.849716	1.786903	2.729000
0.873963	1.784598	2.775000
0.898687	1.785093	2.821000
0.924128	1.780534	2.868000
0.949480	1.779907	2.914000
0.974492	1.781470	2.960000
0.999783	1.784871	3.006000
1.024213	1.784790	3.052000
1.049080	1.785827	3.098000
1.073430	1.785559	3.145000
1.157665	1.786029	3.190000
1.183142	1.786433	3.345000
1.270529	1.798140	3.392000
1.295527	1.799651	3.553000
1.320815	1.803856	3.599000
1.346196	1.806890	3.645000
1.371128	1.810382	3.692000
1.395797	1.810302	3.738000
1.420362	1.815144	3.785000
1.445659	1.817023	3.831000
1.470335	1.820117	3.877000
1.495385	1.824393	3.923000
1.520737	1.829620	3.969000
1.545510	1.835357	4.015000
1.570866	1.840599	4.061000
1.595449	1.847357	4.107000
1.620400	1.852892	4.153000
1.645461	1.859938	4.200000
1.670521	1.867293	4.246000
1.869468	1.875093	4.293000
1.894688	1.913194	4.660000
1.920007	1.915894	4.706000
1.945109	1.920139	4.753000
1.970571	1.924522	4.799000
1.996069	1.924461	4.845000
2.021206	1.930552	4.891000
2.044935	1.936087	4.938000
2.070014	1.941754	4.983000
2.095162	1.946808	5.030000
2.120223	1.949507	5.076000
2.144972	1.952838	5.122000
2.170289	1.957883	5.168000
2.195359	1.962817	5.214000
2.221048	1.968644	5.260000
2.245098	1.973208	5.307000
2.269896	1.978711	5.353000
2.353693	1.982891	5.399000
2.378620	1.996699	5.553000
2.578340	2.028532	5.599000
2.603431	2.030193	5.968000
2.628388	2.030934	6.014000
2.652945	2.031531	6.060000
2.677248	2.033221	6.105000
2.701879	2.037249	6.151000
2.726887	2.036124	6.196000
2.751937	2.037108	6.243000
2.776962	2.039010	6.288000
2.802381	2.040115	6.335000
2.827261	2.042105	6.381000
2.852434	2.040595	6.428000
2.940654	2.040095	6.473000
2.965778	2.040656	6.637000
3.057006	2.034185	6.683000
3.081567	2.031742	6.852000
3.107126	2.029441	6.899000
3.132137	2.025913	6.945000
3.157585	2.022753	6.990000
3.182399	2.019286	7.036000
3.206957	2.015167	7.083000
3.231725	2.011376	7.129000
3.256112	2.006148	7.175000
3.281611	2.004140	7.220000
3.306152	2.002130	7.266000
3.331337	2.000046	7.313000
3.356948	1.996821	7.359000
3.382101	1.994721	7.405000
3.406972	1.992259	7.451000
3.431390	1.991093	7.498000
3.456452	1.989856	7.544000
3.540317	1.988488	7.590000
3.566090	1.982009	7.746000
3.652930	1.970806	7.792000
3.678513	1.972845	7.953000
3.703488	1.971932	7.999000
3.728818	1.975510	8.045000
3.753703	1.979544	8.092000
3.778030	1.978449	8.137000
3.803228	1.972617	8.185000
3.828172	1.966698	8.231000
3.853384	1.964707	8.277000
3.878201	1.962513	8.322000
3.903053	1.961816	8.369000
3.928200	1.961426	8.414000
3.953346	1.963398	8.461000
3.978534	1.961704	8.507000
4.002217	1.963185	8.552000
4.027733	1.965521	8.599000
4.052654	1.966471	8.645000
4.136769	1.968968	8.691000
4.161984	1.884176	8.846000
4.248943	1.906108	8.891000
4.274245	1.929637	9.052000
4.298744	1.945186	9.098000
4.323592	1.952646	9.145000
4.348458	1.957550	9.192000
4.373676	1.962922	9.238000
4.398689	1.964728	9.284000
4.423920	1.965521	9.330000
4.449214	1.967467	9.375000
4.473910	1.967507	9.422000
4.498488	1.967285	9.468000
4.522925	1.969190	9.514000
4.547766	1.969539	9.560000
4.573012	1.967932	9.605000
4.597598	1.969292	9.652000
4.623272	1.973158	9.699000
4.648811	1.974314	9.745000
4.847562	1.970296	9.791000
4.872688	1.982628	10.158000
4.896930	1.988134	10.203000
4.921622	1.992560	10.250000
4.946377	1.991113	10.296000
4.971702	1.991632	10.342000
4.997133	1.989138	10.388000
5.022599	1.987413	10.435000
5.047731	1.986106	10.482000
5.072842	1.986847	10.528000
5.098094	1.984616	10.574000
5.123302	1.983235	10.620000
5.147861	1.980590	10.667000
5.171880	1.977792	10.713000
5.197261	1.973310	10.759000
5.222149	1.971110	10.804000
5.247959	1.966269	10.851000
5.332340	1.965885	10.898000
5.357422	1.955927	11.053000
5.557350	1.930381	11.100000
5.582172	1.923496	11.468000
5.606935	1.919185	11.515000
5.631247	1.916759	11.561000
5.656101	1.911466	11.607000
5.682054	1.908545	11.653000
5.706741	1.907984	11.699000
5.732220	1.908166	11.745000
5.757247	1.906219	11.791000
5.782671	1.901903	11.837000
5.806562	1.899547	11.883000
5.830760	1.895599	11.929000
5.918656	1.897662	11.975000
5.943185	1.887618	12.136000
6.036112	1.892804	12.182000
6.061316	1.895387	12.354000
6.086851	1.892784	12.400000
6.111809	1.888229	12.445000
6.135947	1.886784	12.492000
6.160180	1.882280	12.538000
6.185142	1.882149	12.582000
6.209799	1.882012	12.629000
6.234749	1.881233	12.674000
6.259717	1.881425	12.719000
6.284552	1.879677	12.765000
6.308860	1.883291	12.811000
6.333541	1.884186	12.858000
6.358905	1.884989	12.903000
6.384164	1.884605	12.950000
6.409267	1.885363	12.996000
6.434593	1.885792	13.042000
6.518736	1.885535	13.088000
6.542749	1.887324	13.243000
6.632320	1.895028	13.289000
6.657656	1.895589	13.453000
6.682051	1.899870	13.500000
6.706316	1.904076	13.546000
6.731418	1.907892	13.591000
6.756412	1.910318	13.637000
6.781492	1.917314	13.684000
6.807033	1.921813	13.730000
6.832359	1.923243	13.776000
6.857421	1.925285	13.822000
6.882497	1.926372	13.869000
6.906629	1.930370	13.915000
6.930997	1.932423	13.961000
6.956573	1.936633	14.007000
6.981132	1.939944	14.053000
7.006436	1.943326	14.099000
7.031957	1.948688	14.146000
7.115796	1.949947	14.191000
7.140656	1.954729	14.347000
7.227713	1.955073	14.393000
7.252640	1.953955	14.554000
7.277260	1.957297	14.600000
7.302291	1.959480	14.645000
7.327354	1.961714	14.691000
7.352191	1.962351	14.738000
7.377952	1.963368	14.784000
7.403305	1.966572	14.830000
7.428444	1.966901	14.877000
7.453045	1.968210	14.923000
7.477855	1.969252	14.969000
7.503058	1.970826	15.016000
7.528054	1.973350	15.061000
7.553450	1.978236	15.108000
7.578739	1.981321	15.154000
7.604329	1.982619	15.201000
7.629514	1.988003	15.247000
7.828189	1.992849	15.294000
7.853214	2.009514	15.661000
7.877454	2.009645	15.707000
7.902321	2.011886	15.753000
7.927671	2.012311	15.800000
7.952213	2.015177	15.845000
7.977415	2.014764	15.891000
8.002829	2.017690	15.937000
8.027909	2.018836	15.984000
8.053252	2.022303	16.029000
8.077610	2.024010	16.076000
8.102134	2.027780	16.121000
8.127017	2.029007	16.168000
8.152496	2.030122	16.214000
8.177145	2.032786	16.260000
8.202457	2.033049	16.306000
8.227445	2.034684	16.352000
8.311106	2.034326	16.398000
8.335855	2.043764	16.553000
8.535149	2.050528	16.600000
8.559827	2.050559	16.967000
8.584609	2.051996	17.013000
8.609908	2.056550	17.059000
8.635003	2.062620	17.105000
8.660434	2.066567	17.151000
8.684898	2.068692	17.196000
8.708925	2.070500	17.242000
8.733515	2.069858	17.289000
8.758821	2.068229	17.334000
8.784145	2.065033	17.381000
8.809409	2.065235	17.427000
8.897564	2.065816	17.472000
8.923033	2.073155	17.637000
9.015866	2.073835	17.683000
9.040344	2.079291	17.853000
9.064776	2.082710	17.899000
9.089612	2.088134	17.946000
9.114833	2.088731	17.992000
9.140166	2.091865	18.038000
9.165106	2.095413	18.084000
9.190573	2.097431	18.130000
9.215718	2.099325	18.177000
9.240889	2.099052	18.222000
9.266429	2.100390	18.269000
9.290933	2.097421	18.316000
9.315291	2.099153	18.362000
9.340273	2.096750	18.408000
9.365729	2.099763	18.454000
9.390649	2.101373	18.500000
9.415815	2.102418	18.547000
9.500407	2.107739	18.594000
9.525565	2.112311	18.749000
9.610958	2.109074	18.795000
9.635787	2.112037	18.954000
9.660647	2.113395	18.999000
9.685557	2.118049	19.045000
9.711314	2.122287	19.092000
9.736420	2.123807	19.137000
9.761431	2.127456	19.184000
9.786848	2.128268	19.230000
9.811668	2.133367	19.277000
9.836593	2.135506	19.323000
9.861226	2.134431	19.370000
9.885883	2.130661	19.416000
9.910854	2.127920	19.462000
9.935899	2.126351	19.507000
9.961492	2.123036	19.553000
9.986310	2.120714	19.600000
10.011597	2.118931	19.646000
10.094102	2.113406	19.692000
10.119699	2.112128	19.847000
10.206203	2.103562	19.893000
10.231152	2.099021	20.053000
10.256894	2.098859	20.098000
10.281716	2.092268	20.146000
10.306629	2.094740	20.191000
10.331373	2.093892	20.237000
10.356185	2.091101	20.284000
10.381160	2.089633	20.330000
10.405554	2.086927	20.376000
10.431451	2.085579	20.422000
10.456345	2.084393	20.469000
10.481545	2.084373	20.515000
10.507121	2.084423	20.561000
10.532078	2.083551	20.608000
10.557163	2.078968	20.653000
10.581759	2.079983	20.700000
10.607188	2.075612	20.746000
10.805502	2.072872	20.793000
10.830414	2.063049	21.160000
10.856042	2.059335	21.206000
10.880620	2.055242	21.252000
10.906155	2.053314	21.299000
10.931572	2.049120	21.345000
10.956465	2.048640	21.391000
10.980850	2.046086	21.436000
11.005723	2.041821	21.483000
11.030065	2.041009	21.528000
11.055605	2.037249	21.575000
11.080716	2.033933	21.621000
11.105714	2.031419	21.668000
11.131318	2.029288	21.714000
11.156257	2.026250	21.760000
11.181945	2.025428	21.806000
11.206323	2.022581	21.853000
11.289768	2.025912	21.899000
11.314865	2.029007	22.054000
11.513912	2.017407	22.100000
11.539663	2.015186	22.468000
11.564504	2.016413	22.515000
11.589755	2.014157	22.561000
11.615503	2.014994	22.607000
11.640388	2.014531	22.654000
11.664679	2.010321	22.700000
11.689568	2.010841	22.747000
11.714351	2.008060	22.792000
11.739455	2.011215	22.838000
11.764799	2.012219	22.885000
11.789974	2.013717	22.931000
11.876691	2.012491	22.977000
11.901662	2.012754	23.136000
11.993806	2.022904	23.183000
12.018520	2.026955	23.354000
12.043559	2.029606	23.400000
12.068965	2.037349	23.446000
12.093927	2.042314	23.492000
12.119005	2.049109	23.538000
12.144032	2.053843	23.585000
12.169180	2.056719	23.631000
12.193512	2.058537	23.676000
12.217948	2.061413	23.722000
12.243397	2.066840	23.769000
12.268174	2.072467	23.815000
12.293928	2.078306	23.861000
12.319350	2.084757	23.908000
12.344160	2.090758	23.953000
12.369438	2.098676	24.000000
12.394261	2.109023	24.046000
12.476860	2.119224	24.092000
12.502344	2.153560	24.247000
12.589357	2.180659	24.294000
12.614717	2.187967	24.453000
12.639774	2.198159	24.500000
12.664952	2.207414	24.546000
12.689899	2.217801	24.592000
12.714861	2.227425	24.638000
12.739697	2.236443	24.685000
12.764170	2.244056	24.730000
12.789072	2.248716	24.777000
12.814745	2.251203	24.823000
12.839940	2.255480	24.870000
12.865124	2.260777	24.917000
12.890795	2.265609	24.963000
12.916085	2.270259	25.009000
12.941180	2.273964	25.056000
12.965652	2.275021	25.102000
12.989807	2.279671	25.147000
13.073522	2.282739	25.193000
13.098333	2.285772	25.347000
13.185276	2.292808	25.394000
13.210010	2.292868	25.553000
13.235190	2.291711	25.599000
13.259835	2.293182	25.645000
13.284296	2.290574	25.690000
13.308773	2.291620	25.737000
13.333866	2.294481	25.783000
13.358940	2.295826	25.827000
13.383743	2.298388	25.873000
13.408989	2.299778	25.920000
13.433880	2.304357	25.966000
13.458359	2.305505	26.012000
13.483623	2.306511	26.059000
13.507980	2.306875	26.105000
13.533603	2.305667	26.151000
13.558365	2.306744	26.197000
13.583512	2.304509	26.243000
13.782707	2.304600	26.288000
13.807027	2.296028	26.655000
13.831922	2.294380	26.702000
13.856952	2.295426	26.748000
13.881834	2.297762	26.794000
13.906771	2.298166	26.840000
13.932189	2.296018	26.886000
13.957109	2.289775	26.933000
13.982271	2.289548	26.979000
14.007635	2.292034	27.025000
14.032381	2.292105	27.071000
14.057053	2.289997	27.117000
14.081313	2.291377	27.163000
14.106529	2.292242	27.210000
14.131823	2.291144	27.256000
14.156817	2.289558	27.302000
14.182426	2.289254	27.348000
14.266709	2.289325	27.394000
14.291280	2.292747	27.549000
14.492035	2.279469	27.595000
14.516406	2.279105	27.966000
14.541261	2.276921	28.012000
14.566055	2.276016	28.058000
14.591119	2.275243	28.104000
14.616143	2.274879	28.150000
14.641445	2.280303	28.196000
14.666650	2.280454	28.243000
14.691836	2.288036	28.288000
14.716624	2.293834	28.335000
14.741316	2.299167	28.381000
14.765440	2.305344	28.427000
14.855252	2.313411	28.472000
14.880058	2.334327	28.637000
14.971885	2.357882	28.682000
14.997999	2.363049	28.853000
15.023201	2.367203	28.900000
15.048317	2.372743	28.946000
15.073018	2.382554	28.991000
15.097251	2.389342	29.038000
15.122109	2.398249	29.082000
15.146246	2.406737	29.128000
15.171629	2.415737	29.174000
15.196759	2.422229	29.220000
15.221688	2.430481	29.266000
15.246878	2.437087	29.313000
15.272014	2.441419	29.358000
15.296904	2.446904	29.404000
15.321535	2.452996	29.452000
15.346240	2.463059	29.497000
15.371384	2.469632	29.543000
15.455521	2.474902	29.590000
15.481013	2.499107	29.744000
15.568908	2.517806	29.790000
15.594170	2.520497	29.953000
15.619140	2.526882	30.000000
15.644232	2.531085	30.046000
15.668890	2.532884	30.092000
15.693956	2.534029	30.139000
15.718683	2.535549	30.185000
15.743463	2.536695	30.231000
15.768434	2.539535	30.276000
15.793488	2.541760	30.322000
15.819100	2.544876	30.368000
15.843424	2.546122	30.414000
15.868388	2.551300	30.461000
15.892887	2.555692	30.507000
15.918160	2.557437	30.553000
15.943229	2.559291	30.600000
15.968286	2.556908	30.646000
16.052823	2.561168	30.692000
16.078224	2.561812	30.847000
16.165117	2.568163	30.894000
16.189841	2.565851	31.054000
16.213973	2.566885	31.100000
16.238775	2.565811	31.146000
16.264140	2.563661	31.191000
16.289322	2.558074	31.238000
16.314557	2.555712	31.284000
16.339639	2.553929	31.330000
16.364572	2.548695	31.376000
16.389645	2.548765	31.422000
16.414346	2.546752	31.469000
16.438944	2.545718	31.515000
16.464453	2.540554	31.561000
16.489240	2.541540	31.608000
16.514980	2.539469	31.654000
16.539820	2.535910	31.700000
16.565297	2.538420	31.747000
16.764271	2.538389	31.793000
16.789062	2.515615	32.159000
16.813730	2.513002	32.206000
16.838317	2.510145	32.252000
16.863090	2.506587	32.298000
16.888678	2.502852	32.345000
16.913803	2.500293	32.391000
16.938836	2.496911	32.437000
16.964254	2.489916	32.484000
16.989850	2.488568	32.530000
17.015163	2.485526	32.577000
17.039579	2.484279	32.623000
17.064414	2.481826	32.669000
17.088888	2.480276	32.715000
17.114700	2.478136	32.761000
17.139476	2.475092	32.808000
17.164505	2.475865	32.854000
17.248400	2.476430	32.900000
17.273483	2.481164	33.054000
17.472515	2.477687	33.101000
17.496441	2.474366	33.468000
17.521555	2.472649	33.514000
17.547033	2.473625	33.560000
17.572519	2.474315	33.606000
17.597602	2.476399	33.653000
17.622475	2.474184	33.699000
17.647535	2.474407	33.745000
17.672736	2.473865	33.791000
17.697212	2.470970	33.837000
17.721580	2.473018	33.883000
17.746864	2.473805	33.930000
17.833513	2.472851	33.975000
17.859003	2.467844	34.137000
17.951899	2.459219	34.183000
17.977506	2.457760	34.354000
18.002495	2.451900	34.400000
18.027718	2.450502	34.447000
18.052662	2.445238	34.494000
18.077480	2.441094	34.539000
18.102493	2.438243	34.586000
18.127564	2.436471	34.632000
18.152336	2.433947	34.677000
18.177791	2.431565	34.724000
18.203079	2.427476	34.770000
18.228419	2.423989	34.817000
18.253586	2.422258	34.864000
18.278158	2.418488	34.910000
18.302851	2.414755	34.956000
18.327922	2.410211	35.003000
18.353270	2.406696	35.048000
18.437528	2.403033	35.094000
18.462778	2.392491	35.250000
18.547805	2.380633	35.296000
18.572640	2.375376	35.454000
18.596845	2.369669	35.500000
18.622223	2.361951	35.546000
18.647727	2.361041	35.593000
18.672953	2.358408	35.639000
18.698699	2.353231	35.686000
18.723088	2.349253	35.732000
18.748845	2.348925	35.778000
18.773445	2.343961	35.823000
18.797877	2.341737	35.870000
18.822625	2.337607	35.916000
18.847471	2.334958	35.962000
18.872687	2.330410	36.009000
18.897906	2.328438	36.055000
18.923664	2.323323	36.101000
18.948770	2.318460	36.148000
19.032710	2.313300	36.194000
19.056926	2.300592	36.349000
19.142783	2.291205	36.395000
19.168108	2.287232	36.554000
19.192966	2.289639	36.599000
19.218143	2.288015	36.646000
19.243504	2.285266	36.692000
19.268821	2.281141	36.738000
19.293826	2.281551	36.784000
19.319142	2.283194	36.831000
19.344193	2.279771	36.877000
19.368035	2.275101	36.923000
19.393102	2.266756	36.970000
19.418058	2.267711	37.015000
19.442851	2.269692	37.062000
19.468571	2.269050	37.108000
19.493306	2.265223	37.154000
19.518400	2.265486	37.199000
19.543039	2.262308	37.246000
19.741413	2.257374	37.292000
19.766140	2.240981	37.659000
19.790992	2.239965	37.704000
19.816724	2.239678	37.750000
19.841363	2.241183	37.797000
19.866455	2.240865	37.842000
19.891442	2.240360	37.888000
19.916576	2.237478	37.935000
19.940835	2.238550	37.981000
19.965597	2.234785	38.027000
19.991281	2.233844	38.074000
20.016738	2.232626	38.120000
20.041617	2.227131	38.166000
20.066490	2.226236	38.212000
20.091882	2.224392	38.259000
20.116951	2.220368	38.304000
20.142103	2.219802	38.351000
20.225063	2.217952	38.397000
20.250058	2.212584	38.552000
20.449758	2.201702	38.599000
20.474526	2.197748	38.966000
20.499879	2.203617	39.012000
20.525123	2.199669	39.059000
20.549768	2.203526	39.104000
20.574223	2.203294	39.149000
20.598733	2.201853	39.196000
20.623512	2.200286	39.242000
20.648752	2.201671	39.288000
20.674344	2.199801	39.334000
20.699157	2.198896	39.381000
20.724630	2.192198	39.427000
20.812802	2.190875	39.473000
20.837485	2.188047	39.636000
20.930894	2.192259	39.682000
20.955109	2.193851	39.854000
20.980293	2.195464	39.900000
21.004928	2.195974	39.946000
21.030215	2.197263	39.992000
21.055687	2.192168	40.038000
21.080633	2.192653	40.085000
21.105849	2.187450	40.131000
21.130760	2.180738	40.176000
21.155772	2.177583	40.223000
21.179731	2.177483	40.269000
21.204408	2.176937	40.315000
21.230017	2.175650	40.361000
21.255353	2.175132	40.408000
21.280761	2.170256	40.453000
21.305922	2.170205	40.500000
21.330849	2.171300	40.546000
21.413769	2.169412	40.593000
21.438458	2.161275	40.746000
21.525650	2.163830	40.793000
21.550534	2.161140	40.954000
21.575942	2.161271	41.000000
21.601232	2.158666	41.046000
21.627177	2.159743	41.093000
21.652016	2.157209	41.139000
21.677402	2.158364	41.185000
21.702342	2.159379	41.232000
21.726777	2.157582	41.278000
21.752035	2.161059	41.325000
21.776224	2.159984	41.371000
21.801612	2.167914	41.416000
21.826564	2.169922	41.462000
21.852310	2.172294	41.509000
21.877114	2.171563	41.556000
21.902369	2.177891	41.602000
21.927934	2.179664	41.648000
22.010510	2.181052	41.694000
22.035800	2.187693	41.848000
22.121728	2.188490	41.894000
22.146724	2.188501	42.054000
22.171993	2.190065	42.099000
22.197276	2.189727	42.146000
22.222251	2.189193	42.192000
