Sample	2mm tape 
date	07/01/2025
	
Temperature (K)	77.00
Angle (deg.)	90.000000
field / T	0.000000
	
		
Approx. trace time (s)	120.0	
		
Current / A	V1  -sample/ uV	time/s
-0.019388	-0.799212	0.000000
-0.018781	-0.807584	0.046000
-0.018664	-0.817172	0.092000
-0.018646	-0.827570	0.138000
-0.018192	-0.836235	0.185000
-0.019517	-0.846713	0.231000
-0.018658	-0.857471	0.277000
-0.018836	-0.868800	0.324000
0.018802	-0.984900	0.478000
0.045316	-0.996285	0.842000
0.071546	-1.007002	0.889000
0.095272	-1.018191	0.935000
0.120499	-1.030145	0.981000
0.146288	-1.041984	1.027000
0.170661	-1.052749	1.074000
0.195631	-1.062207	1.121000
0.221062	-1.071435	1.168000
0.245799	-1.081485	1.214000
0.270897	-1.089557	1.260000
0.295843	-1.096633	1.306000
0.321083	-1.106041	1.352000
0.523407	-1.112978	1.398000
0.549120	-1.192209	1.772000
0.574041	-1.201527	1.818000
0.599691	-1.209790	1.865000
0.624991	-1.219713	1.911000
0.650033	-1.229683	1.958000
0.674395	-1.239281	2.004000
0.698979	-1.248239	2.050000
0.723741	-1.257191	2.097000
0.749926	-1.267239	2.143000
0.774467	-1.276050	2.189000
0.800021	-1.285729	2.235000
0.825114	-1.294228	2.282000
0.850408	-1.303432	2.328000
0.875561	-1.310055	2.374000
0.899886	-1.316730	2.421000
0.924701	-1.324800	2.467000
1.008688	-1.331736	2.513000
1.095856	-1.353740	2.667000
1.120974	-1.357751	2.828000
1.146143	-1.361544	2.875000
1.171281	-1.364258	2.921000
1.196587	-1.368255	2.967000
1.221883	-1.370503	3.014000
1.246002	-1.374427	3.060000
1.270860	-1.378514	3.106000
1.296055	-1.378544	3.152000
1.321220	-1.379569	3.199000
1.346293	-1.379819	3.245000
1.371776	-1.380408	3.291000
1.397255	-1.379414	3.338000
1.421585	-1.377619	3.384000
1.446728	-1.375801	3.429000
1.471031	-1.375002	3.476000
1.496018	-1.373937	3.522000
1.521290	-1.373232	3.568000
1.605835	-1.373857	3.615000
1.692473	-1.351581	3.769000
1.717525	-1.346922	3.929000
1.742673	-1.344533	3.976000
1.767004	-1.339986	4.021000
1.791263	-1.335158	4.068000
1.816357	-1.329988	4.114000
1.841602	-1.325656	4.160000
1.867449	-1.320323	4.206000
1.892443	-1.315566	4.253000
1.917553	-1.311220	4.298000
1.942514	-1.307166	4.345000
1.967822	-1.303633	4.391000
1.992456	-1.302398	4.438000
2.016978	-1.298855	4.484000
2.041961	-1.296907	4.530000
2.066830	-1.291990	4.576000
2.092590	-1.289361	4.622000
2.118355	-1.286724	4.669000
2.202314	-1.284884	4.715000
2.288572	-1.271577	4.871000
2.312956	-1.269808	5.029000
2.337520	-1.267860	5.076000
2.361698	-1.266961	5.121000
2.387435	-1.267219	5.168000
2.412409	-1.265502	5.213000
2.437562	-1.264087	5.259000
2.462628	-1.261199	5.306000
2.487741	-1.256077	5.351000
2.513047	-1.252648	5.398000
2.537975	-1.250450	5.445000
2.563027	-1.249395	5.491000
2.587397	-1.249835	5.537000
2.613022	-1.249295	5.583000
2.637955	-1.247373	5.630000
2.662936	-1.244631	5.676000
2.688371	-1.242439	5.722000
2.713781	-1.240156	5.769000
2.796866	-1.240056	5.815000
2.998680	-1.238535	5.970000
3.023858	-1.237279	6.341000
3.047398	-1.234066	6.387000
3.072321	-1.230233	6.433000
3.098050	-1.228547	6.480000
3.123270	-1.226585	6.526000
3.148688	-1.223822	6.572000
3.173527	-1.220194	6.618000
3.198846	-1.215059	6.664000
3.223853	-1.210220	6.710000
3.248040	-1.204129	6.757000
3.273511	-1.195527	6.803000
3.297808	-1.187064	6.849000
3.503210	-1.179758	6.896000
3.528058	-1.110216	7.272000
3.553459	-1.099206	7.319000
3.578147	-1.088331	7.365000
3.601988	-1.075635	7.410000
3.627528	-1.064450	7.458000
3.653090	-1.052144	7.504000
3.677957	-1.040155	7.551000
3.703525	-1.030569	7.597000
3.728741	-1.022799	7.643000
3.753430	-1.017028	7.689000
3.778830	-1.012341	7.735000
3.803579	-1.009112	7.782000
3.828076	-1.006913	7.828000
3.853305	-1.006814	7.874000
3.878141	-1.004874	7.921000
3.903651	-1.005095	7.967000
3.988295	-1.003251	8.014000
4.074810	-1.002216	8.169000
4.100234	-1.002066	8.329000
4.125337	-1.001966	8.375000
4.150172	-0.999557	8.421000
4.174505	-1.003370	8.467000
4.199449	-0.999292	8.514000
4.224835	-0.991247	8.560000
4.249707	-0.984482	8.606000
4.274820	-0.975846	8.651000
4.300034	-0.968651	8.698000
4.325141	-0.960230	8.744000
4.349953	-0.953729	8.790000
4.374119	-0.946473	8.836000
4.398878	-0.935970	8.882000
4.424155	-0.925291	8.928000
4.449609	-0.915592	8.975000
4.474526	-0.906158	9.021000
4.499915	-0.896994	9.067000
4.583412	-0.888653	9.113000
4.671211	-0.845224	9.267000
4.695787	-0.838098	9.429000
4.720065	-0.829708	9.475000
4.745526	-0.823358	9.522000
4.770698	-0.815096	9.568000
4.796068	-0.807574	9.615000
4.821019	-0.800913	9.661000
4.846709	-0.793221	9.707000
4.872190	-0.785159	9.754000
4.896952	-0.775040	9.799000
4.921592	-0.765411	9.846000
4.945550	-0.756343	9.891000
4.971008	-0.747596	9.937000
4.996223	-0.737306	9.984000
5.021716	-0.727412	10.031000
5.046926	-0.715927	10.078000
5.071791	-0.703035	10.124000
5.097247	-0.690779	10.170000
5.180497	-0.679725	10.216000
5.265792	-0.621172	10.370000
5.291180	-0.609613	10.529000
5.316469	-0.595515	10.575000
5.341760	-0.583203	10.622000
5.366689	-0.570106	10.669000
5.392355	-0.556493	10.715000
5.417398	-0.542011	10.761000
5.442539	-0.528110	10.807000
5.466919	-0.515112	10.853000
5.491729	-0.501256	10.900000
5.516865	-0.487790	10.946000
5.541786	-0.474901	10.992000
5.567390	-0.465308	11.039000
5.592758	-0.454524	11.085000
5.618099	-0.444929	11.132000
5.642538	-0.435890	11.178000
5.668188	-0.426874	11.223000
5.692404	-0.419305	11.270000
5.775941	-0.412833	11.316000
5.976990	-0.315844	11.471000
6.001901	-0.307721	11.842000
6.027203	-0.297427	11.888000
6.052714	-0.287873	11.935000
6.077911	-0.278605	11.981000
6.102819	-0.268591	12.027000
6.128088	-0.258372	12.073000
6.153234	-0.246421	12.120000
6.177781	-0.236367	12.166000
6.202811	-0.226204	12.212000
6.227818	-0.216865	12.259000
6.253240	-0.207126	12.305000
6.278268	-0.201026	12.351000
6.481400	-0.190892	12.398000
6.506181	-0.122105	12.772000
6.531250	-0.115079	12.819000
6.556068	-0.107444	12.865000
6.581625	-0.101502	12.912000
6.606670	-0.096090	12.958000
6.631725	-0.090903	13.004000
6.656989	-0.086885	13.049000
6.681934	-0.081725	13.096000
6.706708	-0.076371	13.142000
6.731775	-0.071194	13.188000
6.756273	-0.064669	13.234000
6.781604	-0.062030	13.281000
6.806985	-0.057793	13.327000
6.831820	-0.053471	13.374000
6.857154	-0.051311	13.420000
6.882364	-0.048178	13.466000
6.965706	-0.047094	13.511000
7.053847	-0.038574	13.667000
7.079125	-0.037660	13.830000
7.103142	-0.035542	13.876000
7.128826	-0.034502	13.922000
7.153762	-0.033567	13.968000
7.178884	-0.032482	14.014000
7.203769	-0.030054	14.060000
7.229185	-0.029895	14.106000
7.254817	-0.029180	14.152000
7.278833	-0.030835	14.199000
7.303165	-0.032993	14.245000
7.328380	-0.037610	14.291000
7.353828	-0.040474	14.337000
7.379316	-0.042518	14.383000
7.403843	-0.045840	14.429000
7.429058	-0.049043	14.475000
7.454444	-0.053790	14.522000
7.479975	-0.057074	14.569000
7.563136	-0.062100	14.615000
7.649611	-0.087679	14.769000
7.674999	-0.092128	14.929000
7.699833	-0.096650	14.975000
7.725292	-0.101821	15.022000
7.750556	-0.105414	15.068000
7.775849	-0.111816	15.115000
7.801100	-0.115489	15.162000
7.825984	-0.120291	15.207000
7.850907	-0.124135	15.254000
7.875580	-0.128056	15.300000
7.900661	-0.133164	15.346000
7.925905	-0.135945	15.393000
7.950844	-0.138006	15.439000
7.976260	-0.139190	15.485000
8.001601	-0.141679	15.532000
8.026652	-0.141839	15.578000
8.052257	-0.142137	15.625000
8.077234	-0.142368	15.671000
8.160065	-0.144416	15.717000
8.245486	-0.151402	15.871000
8.270565	-0.153007	16.029000
8.295855	-0.152177	16.074000
8.321078	-0.153127	16.121000
8.345977	-0.152566	16.168000
8.370995	-0.153552	16.214000
8.395025	-0.152516	16.260000
8.419991	-0.153117	16.307000
8.445488	-0.153441	16.353000
8.470757	-0.153311	16.399000
8.496012	-0.152606	16.445000
8.521318	-0.146995	16.491000
8.546400	-0.143062	16.538000
8.571107	-0.138146	16.583000
8.595950	-0.133938	16.630000
8.620921	-0.128801	16.676000
8.645393	-0.123008	16.723000
8.671234	-0.116333	16.770000
8.755954	-0.110411	16.815000
8.956187	-0.018431	16.971000
8.981667	-0.012161	17.341000
9.006486	-0.004249	17.388000
9.031917	0.000717	17.434000
9.057296	0.007623	17.481000
9.082359	0.013145	17.527000
9.106573	0.017953	17.573000
9.132209	0.024758	17.620000
9.157159	0.030548	17.667000
9.182360	0.038520	17.713000
9.207439	0.045537	17.759000
9.232548	0.054440	17.805000
9.258412	0.062723	17.852000
9.459913	0.072857	17.898000
9.485176	0.140890	18.272000
9.510396	0.152451	18.318000
9.535964	0.161719	18.365000
9.561345	0.171954	18.411000
9.586179	0.181773	18.458000
9.611645	0.192167	18.504000
9.635707	0.200069	18.550000
9.661022	0.211205	18.596000
9.685944	0.219077	18.643000
9.711046	0.228155	18.689000
9.736363	0.235762	18.736000
9.761400	0.245384	18.782000
9.787074	0.252162	18.828000
9.811541	0.257943	18.873000
9.837263	0.264143	18.921000
9.862466	0.268032	18.967000
9.945727	0.271179	19.014000
10.032137	0.292229	19.169000
10.057264	0.295582	19.328000
10.082827	0.297731	19.375000
10.107775	0.302458	19.422000
10.133052	0.304093	19.468000
10.158066	0.308490	19.513000
10.183636	0.310588	19.560000
10.207971	0.313977	19.606000
10.232535	0.316015	19.652000
10.257561	0.318185	19.698000
10.282678	0.321588	19.745000
10.307928	0.321297	19.791000
10.333239	0.321748	19.838000
10.358742	0.323052	19.884000
10.383853	0.322257	19.930000
10.409124	0.321678	19.977000
10.434078	0.322592	20.023000
10.458474	0.320453	20.069000
10.542256	0.320644	20.115000
10.628615	0.304352	20.270000
10.654326	0.302318	20.430000
10.679573	0.298660	20.476000
10.704588	0.300570	20.523000
10.730218	0.298755	20.570000
10.755014	0.298141	20.615000
10.779398	0.296626	20.662000
10.804004	0.294867	20.708000
10.829611	0.293033	20.755000
10.854987	0.289911	20.801000
10.879728	0.286047	20.848000
10.905086	0.282705	20.894000
10.930524	0.277957	20.939000
10.955544	0.271845	20.986000
10.980903	0.268042	21.032000
11.005347	0.263240	21.079000
11.030268	0.260152	21.125000
11.055345	0.254010	21.171000
11.139663	0.250623	21.217000
11.224683	0.221379	21.373000
11.249970	0.217276	21.528000
11.274714	0.210159	21.575000
11.299155	0.203598	21.622000
11.323658	0.200080	21.668000
11.348926	0.197738	21.714000
11.374455	0.191556	21.760000
11.399787	0.187899	21.807000
11.425235	0.183364	21.854000
11.450309	0.179816	21.899000
11.475464	0.175111	21.946000
11.500731	0.168145	21.992000
11.524843	0.163661	22.038000
11.549726	0.157811	22.084000
11.574823	0.152451	22.130000
11.600073	0.146681	22.177000
11.625465	0.141115	22.223000
11.650680	0.135600	22.270000
11.734712	0.132422	22.315000
11.935287	0.129330	22.470000
11.960874	0.131851	22.842000
11.985907	0.133097	22.889000
12.010942	0.136786	22.934000
12.035556	0.140850	22.981000
12.060972	0.147937	23.028000
12.085985	0.153617	23.074000
12.110913	0.160924	23.121000
12.136246	0.166744	23.166000
12.161202	0.172999	23.212000
12.186381	0.182014	23.258000
12.211299	0.188268	23.305000
12.235594	0.195215	23.351000
12.439017	0.202602	23.397000
12.464572	0.259626	23.772000
12.489912	0.266034	23.819000
12.514782	0.272554	23.865000
12.540271	0.279600	23.911000
12.564667	0.289671	23.958000
12.589395	0.296616	24.004000
12.614688	0.305217	24.051000
12.639678	0.312927	24.097000
12.664962	0.322246	24.143000
12.689950	0.329808	24.190000
12.715692	0.340577	24.236000
12.740635	0.351460	24.282000
12.765517	0.362794	24.328000
12.789965	0.374856	24.374000
12.814912	0.387305	24.421000
12.839641	0.400232	24.466000
12.923829	0.413180	24.513000
13.011824	0.481716	24.668000
13.036702	0.493862	24.829000
13.061800	0.504072	24.875000
13.087248	0.514956	24.921000
13.112154	0.525311	24.968000
13.137047	0.538128	25.014000
13.161336	0.550309	25.061000
13.186729	0.562405	25.106000
13.211415	0.574792	25.153000
13.237131	0.585066	25.199000
13.262089	0.596677	25.246000
13.286947	0.607011	25.292000
13.312482	0.619773	25.337000
13.337008	0.628391	25.384000
13.361879	0.638511	25.430000
13.386371	0.650756	25.476000
13.411855	0.663148	25.522000
13.437020	0.674393	25.569000
13.521458	0.684788	25.616000
13.607581	0.732101	25.770000
13.632687	0.737079	25.929000
13.656558	0.739087	25.975000
13.680866	0.742017	26.020000
13.706197	0.745879	26.066000
13.730832	0.748297	26.112000
13.756353	0.750606	26.157000
13.781779	0.752935	26.205000
13.806968	0.757333	26.250000
13.831919	0.759241	26.297000
13.856902	0.761810	26.343000
13.881736	0.762189	26.390000
13.906119	0.764379	26.436000
13.931403	0.764349	26.481000
13.956434	0.764688	26.528000
13.981143	0.764139	26.573000
14.006691	0.762010	26.620000
14.031472	0.758616	26.666000
14.114492	0.756217	26.711000
14.203483	0.750901	26.867000
14.228398	0.752865	27.030000
14.252859	0.754354	27.076000
14.277973	0.756458	27.123000
14.303168	0.758387	27.168000
14.328690	0.760596	27.215000
14.354204	0.765553	27.262000
14.379620	0.768121	27.308000
14.404682	0.772883	27.354000
14.429891	0.775857	27.401000
14.454205	0.779741	27.447000
14.479355	0.783372	27.494000
14.503706	0.788099	27.540000
14.529383	0.791084	27.585000
14.554255	0.794637	27.632000
14.579744	0.797819	27.679000
14.604921	0.802837	27.725000
14.630189	0.808538	27.771000
14.712986	0.809307	27.818000
14.914211	0.857639	27.972000
14.938474	0.861883	28.341000
14.963046	0.865555	28.387000
14.988722	0.867783	28.434000
15.014362	0.869703	28.480000
15.039545	0.871952	28.526000
15.064549	0.878284	28.573000
15.089857	0.884929	28.619000
15.114385	0.892991	28.664000
15.138975	0.897514	28.711000
15.163380	0.904501	28.756000
15.189106	0.910076	28.803000
15.213947	0.913064	28.849000
15.419186	0.913044	28.896000
15.443970	0.935469	29.272000
15.468667	0.937076	29.319000
15.493225	0.940805	29.365000
15.518109	0.939738	29.410000
15.543485	0.942606	29.457000
15.568333	0.942285	29.503000
15.593376	0.943412	29.549000
15.618859	0.944203	29.594000
15.644299	0.945589	29.641000
15.668564	0.945499	29.688000
15.694042	0.943983	29.734000
15.718436	0.944758	29.781000
15.743469	0.944013	29.827000
15.768887	0.945669	29.873000
15.794459	0.945793	29.920000
15.819711	0.947240	29.965000
15.903671	0.946454	30.012000
15.991467	0.932692	30.167000
16.016297	0.926091	30.330000
16.040530	0.921737	30.375000
16.064929	0.914810	30.421000
16.090228	0.910962	30.467000
16.115319	0.905432	30.514000
16.140711	0.901303	30.560000
16.166262	0.897060	30.606000
16.191812	0.893421	30.653000
16.216358	0.890508	30.699000
16.241439	0.886910	30.744000
16.266821	0.883280	30.791000
16.291068	0.877814	30.837000
16.316209	0.875976	30.884000
16.341581	0.871972	30.931000
16.366729	0.870878	30.977000
16.391645	0.868059	31.022000
16.417242	0.865027	31.069000
16.501380	0.861894	31.115000
16.586739	0.843668	31.270000
16.611459	0.841830	31.430000
16.636691	0.842068	31.476000
16.661676	0.839790	31.522000
16.687262	0.839512	31.569000
16.712170	0.838107	31.614000
16.737412	0.837083	31.661000
16.762996	0.834088	31.707000
16.787493	0.834048	31.753000
16.811665	0.834334	31.798000
16.835716	0.834744	31.844000
16.860877	0.836692	31.890000
16.885864	0.837621	31.936000
16.911273	0.840616	31.982000
16.935989	0.842374	32.028000
16.960709	0.848556	32.073000
16.985317	0.852039	32.118000
17.009535	0.858744	32.164000
17.093769	0.864521	32.210000
17.182121	0.909726	32.365000
17.206896	0.913919	32.529000
17.232469	0.920731	32.575000
17.257248	0.925506	32.620000
17.282138	0.932672	32.665000
17.305665	0.938807	32.711000
17.330260	0.945479	32.756000
17.355517	0.951369	32.803000
17.380292	0.958185	32.848000
17.405364	0.967234	32.894000
17.430358	0.972729	32.939000
17.455515	0.981336	32.986000
17.480195	0.987578	33.032000
17.504344	0.997142	33.079000
17.529401	1.005114	33.124000
17.554701	1.014893	33.171000
17.579930	1.022279	33.217000
17.604440	1.030788	33.262000
17.688826	1.040406	33.307000
17.892673	1.132477	33.462000
17.918171	1.140597	33.842000
17.943893	1.152150	33.889000
17.969151	1.157747	33.935000
17.994477	1.167576	33.982000
18.019418	1.176781	34.028000
18.044489	1.184951	34.074000
18.068876	1.191923	34.119000
18.093473	1.199957	34.166000
18.118171	1.208178	34.212000
18.143348	1.217194	34.258000
18.169335	1.225084	34.305000
18.194266	1.233069	34.350000
18.397086	1.242055	34.397000
18.421877	1.283047	34.772000
18.447438	1.286590	34.819000
18.472240	1.289257	34.865000
18.497248	1.292581	34.910000
18.523126	1.296353	34.956000
18.547870	1.299037	35.004000
18.573268	1.300231	35.050000
18.598017	1.303874	35.096000
18.622465	1.302500	35.142000
18.647317	1.303389	35.189000
18.672252	1.305429	35.234000
18.697978	1.307032	35.280000
18.722656	1.305878	35.327000
18.748197	1.307387	35.373000
18.773405	1.308401	35.420000
18.798476	1.308581	35.466000
18.881377	1.309636	35.512000
18.969788	1.329148	35.667000
18.994942	1.331756	35.830000
19.019604	1.335694	35.876000
19.045459	1.339343	35.922000
19.070361	1.343727	35.969000
19.095470	1.347946	36.015000
19.120860	1.352330	36.061000
19.145939	1.360021	36.107000
19.171033	1.366203	36.154000
19.195198	1.373339	36.200000
19.219919	1.378254	36.245000
19.244791	1.384815	36.292000
19.269910	1.388778	36.337000
19.295108	1.394549	36.383000
19.320110	1.398087	36.430000
19.345588	1.399823	36.476000
19.370333	1.403867	36.521000
19.394977	1.405604	36.568000
19.478429	1.408276	36.614000
19.565383	1.423866	36.769000
19.590314	1.427485	36.929000
19.615368	1.430307	36.975000
19.640994	1.434460	37.022000
19.666115	1.436458	37.068000
19.691609	1.441332	37.115000
19.716236	1.445526	37.161000
19.740787	1.451847	37.207000
19.765685	1.456401	37.254000
19.790587	1.462968	37.300000
19.816409	1.470044	37.346000
19.841269	1.478867	37.393000
19.866991	1.487595	37.439000
19.891880	1.495182	37.485000
19.917024	1.501748	37.532000
19.942032	1.510826	37.578000
19.966071	1.518103	37.623000
19.991260	1.524340	37.669000
20.075299	1.532472	37.716000
20.161817	1.572128	37.871000
20.186871	1.578980	38.030000
20.212240	1.581833	38.077000
20.237345	1.585176	38.122000
20.262061	1.585626	38.168000
20.286665	1.587615	38.215000
20.311610	1.587805	38.262000
20.336671	1.589729	38.308000
20.361710	1.589260	38.353000
20.386973	1.589983	38.400000
20.412209	1.590524	38.446000
20.437478	1.593837	38.492000
20.462618	1.596889	38.538000
20.487449	1.597350	38.585000
20.512146	1.601282	38.631000
20.536495	1.601552	38.677000
20.562171	1.602627	38.724000
20.586818	1.601717	38.770000
20.671432	1.600703	38.815000
20.871857	1.598755	38.971000
20.897439	1.602486	39.341000
20.922748	1.605851	39.389000
20.947821	1.609394	39.434000
20.972289	1.612878	39.481000
20.996749	1.619303	39.527000
21.022258	1.622720	39.573000
21.047431	1.628277	39.620000
21.072475	1.631960	39.666000
21.097681	1.639006	39.712000
21.122566	1.645533	39.757000
21.148023	1.654074	39.804000
21.172987	1.660114	39.850000
21.375453	1.664643	39.897000
21.401149	1.713955	40.272000
21.426331	1.718602	40.319000
21.452319	1.722284	40.365000
21.476785	1.726162	40.411000
21.501687	1.729400	40.458000
21.525828	1.732464	40.504000
21.550822	1.735957	40.550000
21.576228	1.739100	40.596000
21.601191	1.742966	40.642000
21.626549	1.745058	40.689000
21.651960	1.747340	40.735000
21.677025	1.747441	40.782000
21.702557	1.748366	40.828000
21.727306	1.747160	40.874000
21.751751	1.746925	40.921000
21.776507	1.745599	40.966000
21.860873	1.744868	41.013000
21.948259	1.733868	41.168000
21.973724	1.732363	41.330000
21.998887	1.731818	41.377000
22.024556	1.733037	41.423000
22.049874	1.734231	41.469000
22.074800	1.735576	41.515000
22.099673	1.738265	41.562000
22.124350	1.740093	41.608000
22.149266	1.742525	41.655000
22.173868	1.744763	41.701000
22.199398	1.748241	41.747000
