Sample	2mm tape 
date	08/01/2025
	
Temperature (K)	77.00
Angle (deg.)	0.000000
field / T	0.600000
	
		
Approx. trace time (s)	120.0	
		
Current / A	V1  -sample/ uV	time/s
-0.017184	1.725921	0.000000
-0.017080	1.719788	0.046000
-0.017668	1.733604	0.092000
-0.017104	1.723630	0.137000
-0.017914	1.730378	0.184000
-0.017325	1.726143	0.229000
-0.018092	1.728006	0.276000
-0.017313	1.736738	0.322000
-0.017068	1.726487	0.369000
-0.017435	1.725311	0.416000
-0.016920	1.740195	0.462000
-0.017392	1.745984	0.508000
-0.017288	1.747291	0.554000
-0.017288	1.747382	0.600000
-0.016950	1.743510	0.647000
0.136157	1.740164	0.693000
0.160355	1.706606	1.060000
0.186276	1.710513	1.106000
0.211823	1.701206	1.153000
0.236180	1.698283	1.199000
0.261512	1.689618	1.245000
0.286005	1.691413	1.292000
0.310788	1.679173	1.337000
0.335350	1.685327	1.384000
0.360542	1.678346	1.430000
0.386652	1.668468	1.476000
0.412148	1.654225	1.522000
0.437039	1.656285	1.569000
0.462433	1.657754	1.615000
0.487189	1.664487	1.662000
0.512258	1.648739	1.708000
0.536371	1.651105	1.754000
0.620430	1.642310	1.800000
0.645210	1.631382	1.954000
0.845444	1.577369	2.001000
0.870654	1.579333	2.370000
0.895436	1.572176	2.417000
0.921466	1.565286	2.463000
0.946517	1.562243	2.509000
0.971511	1.555238	2.555000
0.995432	1.549568	2.602000
1.020097	1.546352	2.648000
1.045540	1.548372	2.694000
1.070555	1.540633	2.740000
1.096157	1.538157	2.786000
1.120754	1.528835	2.832000
1.208362	1.524155	2.879000
1.233835	1.505482	3.040000
1.317968	1.491296	3.087000
1.341867	1.491605	3.242000
1.366361	1.492505	3.287000
1.391529	1.492667	3.332000
1.416384	1.496387	3.378000
1.441187	1.490598	3.424000
1.466495	1.491377	3.470000
1.491348	1.488102	3.515000
1.515970	1.483269	3.562000
1.540854	1.472321	3.609000
1.565852	1.473337	3.655000
1.590658	1.472007	3.701000
1.616224	1.476688	3.746000
1.641471	1.475177	3.793000
1.666454	1.470192	3.839000
1.691784	1.470036	3.885000
1.716404	1.470536	3.932000
1.804832	1.483183	3.978000
1.829827	1.464435	4.140000
1.912924	1.462706	4.187000
1.938061	1.467837	4.342000
1.963203	1.467619	4.388000
1.988542	1.468974	4.435000
2.014034	1.470586	4.481000
2.039103	1.478639	4.527000
2.064255	1.478649	4.574000
2.089723	1.479969	4.620000
2.114235	1.468029	4.666000
2.138882	1.457368	4.713000
2.163909	1.473826	4.759000
2.189020	1.465305	4.805000
2.214825	1.476799	4.852000
2.239783	1.468798	4.899000
2.265325	1.465430	4.945000
2.290228	1.459572	4.991000
2.315097	1.458106	5.036000
2.399948	1.454108	5.083000
2.424380	1.447122	5.241000
2.509663	1.450262	5.287000
2.535013	1.447937	5.443000
2.560346	1.452259	5.489000
2.585455	1.456425	5.536000
2.610407	1.457633	5.582000
2.635666	1.461818	5.628000
2.659776	1.463774	5.674000
2.684654	1.468677	5.720000
2.709600	1.452067	5.767000
2.735141	1.478130	5.813000
2.760584	1.479990	5.859000
2.784911	1.484863	5.906000
2.810103	1.482942	5.952000
2.835182	1.490924	5.998000
2.860545	1.487962	6.043000
2.884820	1.496408	6.090000
2.909559	1.496110	6.136000
3.110970	1.491349	6.182000
3.135525	1.497606	6.553000
3.160387	1.507858	6.599000
3.185530	1.514439	6.646000
3.211423	1.519191	6.692000
3.236405	1.512711	6.738000
3.261750	1.516420	6.785000
3.286518	1.518579	6.831000
3.311655	1.531151	6.877000
3.336069	1.530508	6.923000
3.361004	1.531924	6.970000
3.386086	1.532632	7.016000
3.410866	1.538014	7.062000
3.436738	1.530797	7.109000
3.461718	1.553188	7.155000
3.486757	1.556697	7.201000
3.512151	1.556879	7.247000
3.595578	1.568366	7.293000
3.620108	1.591643	7.448000
3.819020	1.627399	7.494000
3.844350	1.621691	7.861000
3.869793	1.632325	7.908000
3.894937	1.635924	7.954000
3.920294	1.637404	8.001000
3.944990	1.629291	8.047000
3.970620	1.627763	8.093000
3.995461	1.654115	8.139000
4.019529	1.653913	8.186000
4.044826	1.662765	8.232000
4.069796	1.656467	8.277000
4.094665	1.653772	8.324000
4.187570	1.645292	8.371000
4.212567	1.658243	8.541000
4.295687	1.663190	8.587000
4.321184	1.668706	8.742000
4.346152	1.659702	8.789000
4.371185	1.658899	8.834000
4.396830	1.657057	8.881000
4.421913	1.664042	8.927000
4.446927	1.673996	8.973000
4.471323	1.676913	9.020000
4.496244	1.677716	9.065000
4.521191	1.678336	9.112000
4.546468	1.674541	9.158000
4.571910	1.686159	9.205000
4.597153	1.687054	9.251000
4.622199	1.677413	9.297000
4.647838	1.692232	9.344000
4.672761	1.699227	9.390000
4.697425	1.687619	9.436000
4.782569	1.692171	9.482000
4.807110	1.702846	9.640000
4.891729	1.701459	9.686000
4.917191	1.702805	9.842000
4.942199	1.733050	9.888000
4.967526	1.719603	9.934000
4.992541	1.717428	9.980000
5.017922	1.729289	10.027000
5.042230	1.726599	10.073000
5.066507	1.716161	10.119000
5.091742	1.728588	10.166000
5.117005	1.734559	10.212000
5.142803	1.734600	10.258000
5.167672	1.745864	10.304000
5.192876	1.740207	10.350000
5.218300	1.745012	10.397000
5.242462	1.750291	10.444000
5.267451	1.752189	10.490000
5.292030	1.749054	10.536000
5.378312	1.751216	10.582000
5.403294	1.762278	10.740000
5.488347	1.774017	10.787000
5.513207	1.774314	10.942000
5.538000	1.787114	10.988000
5.562135	1.781533	11.034000
5.586904	1.785886	11.081000
5.613112	1.793432	11.127000
5.638145	1.794943	11.173000
5.663258	1.813535	11.220000
5.688400	1.810073	11.266000
5.713452	1.824661	11.312000
5.738320	1.824069	11.357000
5.763208	1.826294	11.404000
5.787688	1.829999	11.450000
5.812438	1.829605	11.497000
5.837463	1.835868	11.543000
5.863128	1.835685	11.589000
5.887915	1.830600	11.635000
6.089295	1.839047	11.681000
6.113922	1.857441	12.052000
6.139650	1.856662	12.099000
6.164914	1.860408	12.145000
6.189744	1.867981	12.191000
6.215299	1.873977	12.238000
6.239890	1.877868	12.284000
6.264717	1.866358	12.330000
6.289098	1.881327	12.377000
6.314529	1.894650	12.423000
6.339500	1.904852	12.469000
6.365079	1.915077	12.515000
6.389804	1.920496	12.561000
6.415585	1.924661	12.608000
6.440380	1.936247	12.653000
6.465240	1.937546	12.700000
6.489624	1.943151	12.746000
6.573280	1.946175	12.793000
6.598890	1.956421	12.947000
6.798250	1.981173	12.994000
6.823325	1.965555	13.362000
6.848731	1.975190	13.408000
6.873249	1.973455	13.454000
6.898228	1.970175	13.500000
6.922909	1.969169	13.546000
6.947913	1.962390	13.592000
6.973416	1.951638	13.639000
6.998033	1.960156	13.685000
7.023319	1.963477	13.732000
7.048890	1.956157	13.778000
7.073954	1.947332	13.824000
7.165311	1.947852	13.870000
7.190559	1.928214	14.041000
7.274873	1.923341	14.087000
7.300291	1.915552	14.242000
7.325538	1.914202	14.288000
7.350258	1.909764	14.334000
7.374854	1.915046	14.380000
7.399183	1.901156	14.427000
7.424039	1.906994	14.472000
7.449506	1.905917	14.519000
7.474515	1.896131	14.564000
7.500528	1.895155	14.611000
7.525072	1.905321	14.656000
7.550735	1.890454	14.703000
7.575619	1.884995	14.750000
7.601013	1.878464	14.796000
7.625302	1.872156	14.843000
7.649987	1.870386	14.888000
7.675574	1.869472	14.935000
7.761604	1.869517	14.981000
7.786744	1.860135	15.141000
7.871842	1.850192	15.186000
7.897230	1.855075	15.343000
7.922238	1.856420	15.388000
7.946567	1.857370	15.435000
7.971178	1.856450	15.481000
7.996137	1.855950	15.527000
8.021725	1.855096	15.573000
8.046645	1.851218	15.620000
8.071775	1.858968	15.665000
8.096688	1.855910	15.711000
8.121335	1.855778	15.758000
8.146448	1.860166	15.804000
8.170998	1.855728	15.850000
8.196325	1.862571	15.897000
8.221212	1.850253	15.943000
8.246507	1.861990	15.989000
8.271621	1.862001	16.035000
8.394041	1.859281	16.082000
8.466393	1.893260	16.308000
8.491194	1.892932	16.442000
8.515908	1.902333	16.487000
8.541604	1.900913	16.534000
8.566731	1.908304	16.580000
8.591740	1.904052	16.626000
8.616900	1.906332	16.671000
8.642313	1.918772	16.718000
8.666929	1.919828	16.765000
8.691609	1.925096	16.811000
8.716189	1.923604	16.857000
8.741000	1.939709	16.904000
8.766469	1.929554	16.950000
8.791967	1.925970	16.996000
8.816942	1.953706	17.042000
8.842281	1.964573	17.088000
8.867399	1.976094	17.134000
9.068254	1.980098	17.180000
9.098807	2.011728	17.553000
9.123459	2.032123	17.609000
9.148607	2.053675	17.655000
9.173616	2.060207	17.702000
9.199330	2.068631	17.748000
9.223995	2.075981	17.794000
9.249291	2.084238	17.840000
9.274293	2.086084	17.886000
9.299533	2.083793	17.933000
9.324145	2.086932	17.979000
9.348894	2.083133	18.026000
9.373982	2.099809	18.072000
9.398688	2.097698	18.117000
9.424806	2.099182	18.164000
9.449828	2.094356	18.210000
9.475099	2.088179	18.256000
9.557819	2.096099	18.302000
9.582713	2.080664	18.457000
9.781808	2.057802	18.504000
9.806895	2.052346	18.870000
9.832713	2.049418	18.918000
9.857690	2.045471	18.963000
9.883306	2.042847	19.010000
9.908017	2.035871	19.055000
9.932621	2.030278	19.102000
9.957240	2.027033	19.148000
9.981309	2.024752	19.194000
10.006532	2.023364	19.240000
10.032288	2.014209	19.286000
10.056886	2.016883	19.332000
10.144635	2.005734	19.378000
10.170230	1.999732	19.541000
10.254478	2.009634	19.587000
10.279843	1.997844	19.743000
10.304758	2.005965	19.789000
10.329181	2.003048	19.835000
10.353913	1.994867	19.882000
10.379234	1.997613	19.928000
10.404252	1.998516	19.974000
10.430112	1.990335	20.021000
10.454905	1.994417	20.067000
10.480568	1.990082	20.113000
10.505927	1.979279	20.160000
10.530121	1.980965	20.205000
10.555166	1.988569	20.252000
10.579703	1.992636	20.298000
10.605406	1.985902	20.345000
10.629929	1.983892	20.390000
10.655378	1.981350	20.437000
10.740838	1.979375	20.484000
10.766189	1.960040	20.640000
10.849870	1.969002	20.686000
10.874351	1.959868	20.843000
10.899725	1.967309	20.888000
10.924523	1.970933	20.935000
10.950058	1.975377	20.981000
10.975208	1.969316	21.027000
11.000365	1.977741	21.073000
11.026047	1.981858	21.120000
11.050595	1.993691	21.166000
11.075494	2.003281	21.213000
11.100184	2.004305	21.259000
11.124933	2.006086	21.304000
11.149922	2.034937	21.350000
11.175132	2.034292	21.396000
11.200165	2.048768	21.442000
11.225107	2.050377	21.487000
11.250104	2.059977	21.534000
11.336761	2.078623	21.580000
11.362047	2.116159	21.740000
11.445157	2.146725	21.787000
11.470296	2.153565	21.942000
11.495549	2.169949	21.988000
11.520496	2.173315	22.034000
11.546013	2.185645	22.080000
11.570904	2.191808	22.126000
11.595655	2.198297	22.173000
11.619926	2.205181	22.218000
11.644633	2.214705	22.264000
11.669817	2.233528	22.311000
11.695306	2.233963	22.357000
11.720905	2.243760	22.404000
11.745545	2.259010	22.450000
11.770773	2.266592	22.495000
11.796028	2.269347	22.541000
11.820044	2.268129	22.587000
11.844893	2.290729	22.635000
12.047568	2.304241	22.680000
12.072123	2.343598	23.053000
12.096952	2.351650	23.099000
12.121947	2.349558	23.145000
12.146728	2.355305	23.191000
12.171722	2.347581	23.237000
12.196790	2.367336	23.283000
12.222128	2.375155	23.329000
12.247082	2.374771	23.376000
12.271809	2.383551	23.422000
12.296396	2.378436	23.468000
12.320973	2.382414	23.514000
12.345879	2.378739	23.560000
12.371616	2.385715	23.605000
12.396097	2.383288	23.652000
12.422060	2.393581	23.698000
12.446933	2.396547	23.744000
12.529635	2.401643	23.791000
12.554386	2.408027	23.944000
12.753641	2.428242	23.991000
12.778968	2.427687	24.359000
12.803684	2.432017	24.404000
12.829310	2.431489	24.450000
12.854135	2.428161	24.496000
12.878878	2.424139	24.542000
12.902738	2.440249	24.587000
12.927396	2.433446	24.634000
12.953009	2.433930	24.680000
12.978354	2.434976	24.727000
13.003386	2.431134	24.773000
13.028591	2.433496	24.819000
13.123643	2.430689	24.866000
13.148722	2.428327	25.041000
13.232447	2.419038	25.087000
13.257259	2.418492	25.243000
13.282131	2.414679	25.288000
13.308053	2.420540	25.335000
13.332902	2.402133	25.381000
13.358707	2.394526	25.427000
13.383664	2.398353	25.473000
13.408971	2.393338	25.520000
13.433959	2.383248	25.566000
13.457911	2.380271	25.613000
13.483066	2.376546	25.659000
13.508126	2.367664	25.705000
13.533328	2.360370	25.752000
13.558501	2.358015	25.797000
13.584007	2.348992	25.843000
13.608868	2.344634	25.889000
13.634019	2.339782	25.936000
13.719718	2.301652	25.982000
13.743963	2.311161	26.140000
13.828084	2.293470	26.187000
13.853539	2.300748	26.342000
13.879249	2.300273	26.388000
13.904380	2.292822	26.435000
13.928908	2.293247	26.481000
13.953801	2.290007	26.527000
13.977973	2.289694	26.573000
14.002534	2.290118	26.619000
14.027698	2.284749	26.664000
14.052986	2.277774	26.711000
14.078185	2.278209	26.756000
14.103414	2.269995	26.803000
14.128349	2.274595	26.849000
14.153803	2.264025	26.896000
14.178635	2.260380	26.942000
14.203298	2.258717	26.987000
14.227956	2.248481	27.035000
14.314229	2.244301	27.081000
14.339249	2.239049	27.240000
14.424525	2.229555	27.286000
14.449597	2.214189	27.442000
14.474973	2.214290	27.488000
14.499762	2.207921	27.535000
14.524892	2.202092	27.582000
14.548821	2.190263	27.627000
14.573867	2.199059	27.674000
14.599543	2.198225	27.719000
14.624576	2.182552	27.766000
14.649841	2.188875	27.812000
14.674769	2.177615	27.859000
14.700182	2.176722	27.905000
14.725495	2.166087	27.951000
14.750410	2.159102	27.998000
14.775188	2.167152	28.045000
14.799676	2.152147	28.091000
14.825027	2.148043	28.137000
15.025949	2.144495	28.182000
15.051296	2.118663	28.553000
15.075806	2.120550	28.599000
15.101330	2.112945	28.645000
15.126938	2.110622	28.691000
15.151622	2.107502	28.737000
15.177329	2.104399	28.784000
15.201513	2.104988	28.830000
15.226032	2.100037	28.876000
15.251025	2.097797	28.922000
15.276068	2.095192	28.968000
15.301800	2.092204	29.015000
15.326386	2.088494	29.060000
15.352011	2.084875	29.107000
15.377393	2.084689	29.153000
15.402511	2.084023	29.200000
15.427396	2.082195	29.246000
15.510342	2.079668	29.293000
15.535504	2.074080	29.447000
15.734542	2.050564	29.494000
15.760188	2.051649	29.861000
15.785622	2.049519	29.907000
15.810792	2.046637	29.953000
15.835220	2.048019	30.000000
15.860729	2.053229	30.046000
15.885815	2.045007	30.093000
15.910124	2.056186	30.139000
15.935314	2.043730	30.185000
15.960382	2.047833	30.232000
15.985470	2.053502	30.278000
16.010767	2.053733	30.324000
16.103260	2.062688	30.370000
16.127513	2.055248	30.540000
16.211950	2.081610	30.587000
16.237419	2.088287	30.743000
16.262903	2.097515	30.788000
16.287838	2.097555	30.835000
16.312793	2.091422	30.881000
16.337348	2.089192	30.927000
16.361678	2.090196	30.973000
16.386551	2.098317	31.019000
16.412225	2.100058	31.066000
16.437452	2.097161	31.112000
16.462750	2.096651	31.159000
16.487750	2.094127	31.205000
16.513291	2.098811	31.251000
16.538991	2.105080	31.299000
16.563818	2.111333	31.345000
16.588539	2.113453	31.390000
16.613437	2.110692	31.437000
16.698232	2.111475	31.484000
16.723342	2.111789	31.641000
16.808004	2.123357	31.687000
16.833192	2.109285	31.843000
16.858526	2.108911	31.889000
16.883701	2.124956	31.935000
16.908459	2.118511	31.982000
16.933215	2.118896	32.027000
16.958006	2.125027	32.074000
16.983192	2.114009	32.120000
17.008309	2.130836	32.166000
17.033667	2.122786	32.213000
17.059322	2.119869	32.259000
17.084226	2.125931	32.305000
17.109714	2.150738	32.351000
17.133969	2.144686	32.398000
17.158191	2.136434	32.444000
17.183047	2.140527	32.490000
17.208296	2.136323	32.536000
17.294420	2.118359	32.582000
17.319584	2.132153	32.740000
17.404324	2.139250	32.787000
17.429588	2.139416	32.943000
17.454213	2.139260	32.988000
17.479021	2.129937	33.036000
17.503854	2.143804	33.082000
17.529499	2.144201	33.129000
17.554747	2.134833	33.175000
17.579874	2.135440	33.221000
17.604793	2.124634	33.267000
17.630089	2.135531	33.313000
17.654940	2.138260	33.360000
17.679432	2.134103	33.405000
17.704310	2.141950	33.452000
17.729156	2.139770	33.498000
17.754358	2.142183	33.543000
17.779171	2.136596	33.590000
17.804619	2.133139	33.637000
18.005224	2.131781	33.682000
18.030096	2.126389	34.053000
18.055472	2.129166	34.099000
18.080495	2.121065	34.145000
18.105319	2.116794	34.190000
18.129708	2.124118	34.237000
18.154808	2.125607	34.284000
18.179887	2.123729	34.329000
18.204562	2.128640	34.376000
18.230071	2.131144	34.421000
18.255169	2.129866	34.468000
18.280661	2.133870	34.514000
18.305826	2.136333	34.560000
18.330098	2.132092	34.607000
18.354628	2.136918	34.653000
18.379318	2.135026	34.698000
18.405014	2.134244	34.745000
18.488888	2.142466	34.792000
18.514784	2.154967	34.946000
18.713635	2.189036	34.993000
18.739096	2.183323	35.361000
18.764166	2.195659	35.407000
18.788434	2.207354	35.454000
18.813370	2.205717	35.500000
18.837944	2.199746	35.546000
18.863622	2.207303	35.593000
18.888655	2.231556	35.638000
18.914148	2.230439	35.685000
18.939101	2.237446	35.731000
18.964175	2.239058	35.777000
18.989398	2.254808	35.823000
19.081060	2.262169	35.870000
19.106665	2.292584	36.040000
19.191099	2.321286	36.087000
19.216412	2.330880	36.242000
19.241717	2.335652	36.288000
19.266969	2.350736	36.336000
19.291041	2.358768	36.381000
19.315761	2.364434	36.428000
19.341231	2.373346	36.474000
19.365780	2.399034	36.520000
19.391036	2.401137	36.566000
19.416088	2.408465	36.611000
19.441389	2.422069	36.658000
19.466335	2.434389	36.704000
19.490563	2.435768	36.750000
19.515323	2.451318	36.796000
19.540179	2.452444	36.842000
19.565314	2.465052	36.887000
19.590642	2.473124	36.934000
19.677436	2.482087	36.980000
19.702744	2.497749	37.140000
19.787181	2.536623	37.187000
19.812066	2.544915	37.342000
19.836321	2.546948	37.388000
19.860902	2.567062	37.435000
19.886469	2.562919	37.481000
19.911571	2.571688	37.527000
19.937055	2.575886	37.574000
19.962253	2.567684	37.619000
19.987139	2.601270	37.666000
20.011972	2.609563	37.711000
20.036565	2.602264	37.757000
20.061264	2.624588	37.804000
20.086204	2.625192	37.849000
20.111508	2.642481	37.897000
20.136763	2.649467	37.942000
20.162526	2.657019	37.989000
20.187228	2.671946	38.036000
20.273327	2.685164	38.082000
20.298022	2.721205	38.240000
20.381967	2.761609	38.286000
20.407238	2.775592	38.442000
20.432328	2.792536	38.489000
20.457776	2.810039	38.535000
20.482839	2.818173	38.582000
20.508126	2.832600	38.628000
20.533466	2.849823	38.673000
20.558041	2.858377	38.720000
20.583160	2.880086	38.767000
20.607598	2.889056	38.812000
20.632484	2.915361	38.859000
20.657413	2.927516	38.904000
20.683218	2.938388	38.951000
20.708195	2.958900	38.998000
20.733245	2.976358	39.044000
20.758773	2.995437	39.091000
20.784006	3.020730	39.137000
20.984335	3.036393	39.184000
21.009339	3.182360	39.553000
21.033551	3.199224	39.599000
21.058563	3.219752	39.645000
21.082856	3.243044	39.691000
21.108830	3.266110	39.737000
21.133363	3.287446	39.784000
21.159016	3.311538	39.830000
21.184429	3.333263	39.877000
21.210050	3.354501	39.923000
21.235105	3.380133	39.970000
21.260140	3.404445	40.016000
21.285086	3.428612	40.062000
21.309524	3.453622	40.109000
21.334481	3.482238	40.155000
21.359575	3.505528	40.201000
21.385352	3.534872	40.248000
21.469153	3.564533	40.294000
21.493853	3.660505	40.448000
21.693562	3.940351	40.495000
21.718249	3.974583	40.863000
21.742991	4.011428	40.909000
21.767732	4.046251	40.955000
21.793453	4.092007	41.002000
21.818257	4.129165	41.048000
21.843887	4.162914	41.095000
21.869198	4.201738	41.141000
21.894421	4.246716	41.187000
21.919857	4.294533	41.234000
21.944615	4.334618	41.280000
21.969365	4.383486	41.327000
22.060107	4.425081	41.373000
22.085506	4.610992	41.540000
22.170092	4.733820	41.586000
22.194396	4.771967	41.743000
22.219362	4.826013	41.788000
22.243972	4.884665	41.835000
22.269435	4.925953	41.881000
22.294552	4.974787	41.928000
22.320057	5.023979	41.973000
22.345069	5.069964	42.020000
22.370515	5.116278	42.066000
22.395355	5.164199	42.112000
22.419631	5.221859	42.158000
22.444418	5.273333	42.204000
