Sample	2mm tape 
date	07/01/2025
	
Temperature (K)	77.00
Angle (deg.)	0.000000
field / T	0.300000
	
		
Approx. trace time (s)	120.0	
		
Current / A	V1  -sample/ uV	time/s
-0.018639	1.210427	0.000000
-0.018436	1.202088	0.289000
-0.018288	1.208704	0.336000
-0.018202	1.203263	0.510000
-0.018141	1.200929	0.555000
-0.017871	1.202207	0.602000
-0.018171	1.191535	0.648000
-0.017939	1.203856	0.694000
-0.017338	1.199064	0.740000
0.012174	1.197266	0.786000
0.036638	1.197226	0.831000
0.062442	1.193342	0.878000
0.086051	1.198160	0.924000
0.111511	1.192469	0.970000
0.198317	1.208734	1.015000
0.223368	1.209608	1.177000
0.248670	1.203702	1.223000
0.273266	1.202257	1.269000
0.299002	1.211782	1.314000
0.323819	1.218199	1.361000
0.348383	1.214020	1.407000
0.548150	1.226509	1.453000
0.573541	1.255687	1.822000
0.598736	1.263024	1.868000
0.623015	1.261044	1.913000
0.647550	1.261479	1.960000
0.672686	1.265691	2.007000
0.697829	1.269980	2.053000
0.793965	1.282171	2.099000
0.819387	1.282827	2.277000
0.844895	1.284262	2.323000
0.869803	1.285066	2.369000
0.894521	1.288193	2.414000
0.919608	1.290074	2.461000
0.944952	1.283128	2.507000
1.027863	1.282717	2.554000
1.053615	1.290054	2.710000
1.078922	1.288789	2.756000
1.103915	1.288153	2.802000
1.128835	1.276270	2.848000
1.154547	1.280957	2.895000
1.179429	1.286240	2.941000
1.204056	1.276946	2.987000
1.228511	1.276290	3.033000
1.253391	1.275551	3.079000
1.278281	1.273633	3.125000
1.303663	1.268209	3.171000
1.390397	1.251890	3.217000
1.415778	1.249122	3.377000
1.440975	1.246503	3.424000
1.465920	1.238962	3.470000
1.490426	1.235994	3.516000
1.515311	1.230082	3.562000
1.539459	1.220617	3.607000
1.624220	1.218128	3.654000
1.649985	1.205461	3.810000
1.675180	1.191224	3.856000
1.699721	1.187601	3.902000
1.725226	1.196590	3.948000
1.750296	1.182944	3.994000
1.774530	1.186146	4.041000
1.799224	1.178547	4.087000
1.824371	1.168651	4.133000
1.849819	1.167517	4.179000
1.874764	1.162609	4.225000
1.900149	1.156184	4.271000
1.986587	1.136248	4.318000
2.011504	1.127599	4.477000
2.036468	1.123152	4.523000
2.060611	1.116454	4.570000
2.085614	1.115170	4.615000
2.110603	1.108246	4.662000
2.135485	1.104750	4.708000
2.220512	1.092770	4.754000
2.245709	1.078187	4.910000
2.270828	1.067471	4.956000
2.295326	1.064464	5.002000
2.319407	1.058463	5.048000
2.345027	1.050241	5.094000
2.370032	1.041628	5.141000
2.395474	1.030782	5.187000
2.420504	1.034371	5.233000
2.445727	1.034401	5.278000
2.470464	1.024762	5.325000
2.495361	1.024116	5.371000
2.697331	0.990910	5.417000
2.722553	0.983944	5.790000
2.816292	0.980807	5.835000
2.840363	0.966763	6.009000
2.865438	0.961799	6.055000
2.890264	0.952650	6.101000
2.915620	0.948431	6.147000
2.940467	0.941064	6.194000
2.966382	0.942431	6.240000
2.991303	0.934288	6.285000
3.015562	0.928928	6.332000
3.040048	0.924829	6.377000
3.064688	0.924044	6.423000
3.089676	0.921230	6.469000
3.176752	0.909359	6.515000
3.202184	0.909045	6.677000
3.227123	0.902543	6.723000
3.252523	0.896573	6.769000
3.277501	0.898049	6.815000
3.302822	0.898885	6.861000
3.327148	0.897649	6.907000
3.527305	0.893085	6.953000
3.551760	0.874489	7.322000
3.576025	0.872864	7.368000
3.601484	0.874469	7.414000
3.627079	0.876051	7.460000
3.652236	0.869942	7.507000
3.677170	0.869541	7.553000
3.773111	0.869431	7.598000
3.798823	0.865898	7.777000
3.823615	0.856754	7.823000
3.848824	0.862000	7.869000
3.873500	0.859886	7.916000
3.897862	0.862255	7.961000
3.923083	0.865683	8.007000
4.007444	0.859092	8.054000
4.032477	0.867132	8.209000
4.057466	0.868878	8.255000
4.082785	0.868002	8.301000
4.107249	0.871475	8.347000
4.131858	0.878332	8.393000
4.156765	0.914745	8.440000
4.181686	0.887725	8.486000
4.206902	0.885447	8.532000
4.232028	0.889297	8.578000
4.257034	0.893981	8.624000
4.282130	0.892995	8.670000
4.369467	0.906362	8.715000
4.394399	0.906082	8.877000
4.418945	0.905682	8.923000
4.443406	0.910566	8.969000
4.468114	0.912674	9.015000
4.493315	0.912444	9.061000
4.518752	0.914155	9.107000
4.603671	0.915501	9.153000
4.628616	0.935245	9.310000
4.653708	0.932007	9.356000
4.678155	0.935485	9.402000
4.702935	0.930075	9.447000
4.727947	0.935194	9.494000
4.753007	0.938057	9.540000
4.777935	0.941375	9.586000
4.803729	0.940600	9.632000
4.828625	0.942411	9.679000
4.853966	0.944448	9.725000
4.878620	0.952060	9.771000
4.964870	0.966253	9.817000
4.989625	0.962394	9.977000
5.014307	0.971137	10.023000
5.039676	0.986967	10.070000
5.064398	0.979580	10.116000
5.089986	0.979580	10.162000
5.115494	0.985311	10.208000
5.198950	0.993994	10.255000
5.223002	0.991191	10.409000
5.248617	1.000195	10.456000
5.273723	1.000705	10.502000
5.298560	1.003543	10.547000
5.324040	1.003803	10.594000
5.349170	1.007822	10.640000
5.374897	1.011019	10.686000
5.399763	1.012486	10.733000
5.424616	1.013772	10.779000
5.448765	1.018587	10.825000
5.473637	1.020679	10.872000
5.676011	1.038806	10.918000
5.699853	1.038280	11.290000
5.794495	1.043670	11.335000
5.819233	1.054365	11.509000
5.844493	1.049800	11.555000
5.869652	1.041023	11.602000
5.895284	1.044906	11.648000
5.920254	1.052704	11.693000
5.944580	1.050516	11.740000
5.969623	1.050677	11.786000
5.994242	1.055801	11.833000
6.019293	1.056052	11.878000
6.043993	1.054926	11.924000
6.069020	1.053329	11.969000
6.156386	1.053580	12.015000
6.181240	1.050402	12.177000
6.206453	1.048665	12.223000
6.231085	1.049285	12.269000
6.255480	1.048855	12.315000
6.280003	1.050032	12.361000
6.305361	1.046283	12.406000
6.504679	1.041448	12.454000
6.530119	1.019523	12.822000
6.555464	1.022771	12.867000
6.580308	1.020839	12.914000
6.605437	1.021019	12.960000
6.630925	1.019473	13.006000
6.655423	1.010900	13.052000
6.752288	1.015219	13.099000
6.777746	1.007591	13.277000
6.802570	1.004373	13.324000
6.826652	1.010454	13.370000
6.851844	1.008888	13.416000
6.876777	1.004859	13.462000
6.902047	1.001691	13.508000
6.986338	0.996826	13.554000
7.011796	0.988093	13.710000
7.036597	0.986827	13.756000
7.061045	0.983399	13.802000
7.085969	0.989239	13.848000
7.110803	0.983058	13.895000
7.136376	0.978724	13.940000
7.161048	0.987793	13.986000
7.186116	0.983128	14.033000
7.211567	0.986967	14.079000
7.235932	0.981182	14.124000
7.261054	0.984094	14.171000
7.347551	0.992106	14.217000
7.372325	0.986156	14.377000
7.397592	0.989785	14.423000
7.423117	0.990295	14.470000
7.447757	0.992046	14.516000
7.472614	0.996757	14.562000
7.498559	1.004153	14.608000
7.582610	0.998773	14.655000
7.606961	1.011845	14.809000
7.631877	1.017866	14.855000
7.657255	1.020969	14.902000
7.682236	1.016134	14.948000
7.707272	1.017695	14.993000
7.733153	1.016660	15.040000
7.757823	1.023030	15.086000
7.782100	1.029707	15.132000
7.806364	1.035907	15.178000
7.831188	1.035102	15.224000
7.856357	1.034401	15.270000
7.943577	1.035997	15.316000
7.968692	1.034401	15.477000
7.993913	1.027204	15.523000
8.019362	1.029667	15.569000
8.044019	1.026258	15.615000
8.068628	1.028501	15.661000
8.092996	1.030007	15.707000
8.177541	1.025253	15.753000
8.202658	1.019562	15.909000
8.227687	1.021725	15.955000
8.253416	1.018146	16.001000
8.278214	1.021324	16.047000
8.303300	1.016680	16.093000
8.327852	1.019292	16.140000
8.351979	1.018166	16.186000
8.376949	1.019362	16.232000
8.401962	1.009613	16.278000
8.427331	1.010829	16.323000
8.452063	1.011009	16.369000
8.653922	1.014477	16.415000
8.679540	1.010314	16.790000
8.773961	1.009633	16.836000
8.799402	1.008808	17.009000
8.824268	1.013111	17.056000
8.848883	1.005349	17.101000
8.872675	1.008072	17.147000
8.897425	1.006395	17.193000
8.922809	1.006736	17.239000
8.947404	1.006405	17.284000
8.972681	0.999428	17.330000
8.997796	0.997612	17.376000
9.023188	1.005500	17.422000
9.047919	1.004534	17.469000
9.135970	0.992857	17.515000
9.160377	0.990790	17.677000
9.184652	0.991421	17.723000
9.209406	0.994034	17.768000
9.234210	0.989319	17.814000
9.259773	0.986847	17.860000
9.284497	0.997376	17.906000
9.484994	0.981742	17.952000
9.509981	0.982918	18.322000
9.534858	0.978344	18.368000
9.559931	0.977683	18.414000
9.584297	0.978414	18.460000
9.608863	0.980996	18.506000
9.633742	0.982327	18.552000
9.731288	0.986146	18.598000
9.755913	0.986476	18.777000
9.781146	0.988939	18.823000
9.805998	0.990741	18.869000
9.831169	0.991927	18.916000
9.856367	0.993062	18.962000
9.881591	0.994099	19.008000
9.965216	0.993393	19.055000
9.989738	0.996796	19.210000
10.014804	1.001701	19.255000
10.040050	1.008447	19.302000
10.065238	1.006115	19.348000
10.090445	1.009433	19.394000
10.115360	1.013992	19.440000
10.140578	1.015914	19.486000
10.165070	1.016425	19.532000
10.189471	1.015149	19.578000
10.214062	1.015189	19.623000
10.239908	1.020929	19.670000
10.326837	1.012797	19.716000
10.352089	1.008487	19.878000
10.376986	1.009028	19.924000
10.401901	1.011916	19.969000
10.427044	1.011290	20.015000
10.451947	1.013312	20.062000
10.476456	1.010789	20.107000
10.560747	1.008497	20.153000
10.585712	0.999639	20.309000
10.610965	1.000275	20.356000
10.636040	0.999268	20.401000
10.661460	0.999689	20.448000
10.686338	0.997097	20.494000
10.711249	0.994268	20.540000
10.735452	0.992067	20.586000
10.760622	0.993613	20.633000
10.785812	0.992317	20.679000
10.810807	0.990990	20.725000
10.836265	0.993713	20.771000
10.922674	0.981161	20.818000
10.947945	0.985170	20.977000
10.972674	0.986957	21.023000
10.998325	0.984870	21.069000
11.022943	0.978324	21.116000
11.047038	0.988153	21.162000
11.072698	0.984104	21.208000
11.156811	0.978819	21.255000
11.182475	0.987512	21.410000
11.207599	0.988093	21.456000
11.232348	0.988889	21.501000
11.256185	0.988539	21.547000
11.280493	0.987422	21.594000
11.305921	0.995830	21.640000
11.331057	0.998858	21.685000
11.356362	0.997297	21.731000
11.381442	1.004969	21.778000
11.406513	1.006155	21.824000
11.432263	1.010514	21.871000
11.633051	1.007631	21.917000
11.658767	0.998878	22.290000
11.752515	0.997336	22.336000
11.778063	0.987592	22.510000
11.802574	0.989904	22.556000
11.827367	0.991511	22.602000
11.852298	0.978544	22.649000
11.877816	0.986666	22.694000
11.902565	0.982507	22.741000
11.927733	0.979610	22.787000
11.953340	0.980155	22.833000
11.978236	0.980695	22.880000
12.003437	0.978154	22.926000
12.027958	0.982527	22.972000
12.113579	0.971478	23.019000
12.138764	0.973710	23.177000
12.163865	0.971318	23.224000
12.189333	0.974325	23.269000
12.213788	0.977428	23.316000
12.239128	0.975832	23.362000
12.264202	0.967339	23.408000
12.463563	0.975632	23.454000
12.488614	0.973209	23.822000
12.513507	0.966583	23.868000
12.538348	0.968315	23.915000
12.563208	0.967689	23.961000
12.588385	0.971538	24.007000
12.613176	0.972244	24.053000
12.709724	0.970402	24.100000
12.734691	0.963265	24.277000
12.759997	0.970171	24.324000
12.784923	0.974415	24.369000
12.810371	0.979671	24.416000
12.835125	0.982438	24.462000
12.859825	0.989464	24.508000
12.943641	0.994229	24.554000
12.968819	1.009128	24.709000
12.994474	1.013612	24.756000
13.019512	1.014818	24.802000
13.044592	1.020849	24.848000
13.070070	1.028380	24.895000
13.093957	1.034471	24.941000
13.119200	1.043054	24.987000
13.144032	1.047819	25.034000
13.169071	1.051057	25.080000
13.194680	1.055661	25.126000
13.219682	1.060876	25.173000
13.306067	1.078307	25.219000
13.331012	1.080149	25.377000
13.356826	1.081225	25.424000
13.381147	1.093496	25.470000
13.405331	1.097773	25.516000
13.430161	1.101592	25.561000
13.455010	1.105806	25.608000
13.539580	1.107090	25.654000
13.564663	1.125740	25.809000
13.590072	1.127349	25.855000
13.614431	1.138798	25.901000
13.639211	1.130267	25.948000
13.664115	1.146529	25.994000
13.689056	1.138577	26.041000
13.714511	1.146649	26.087000
13.740046	1.151595	26.133000
13.765127	1.151166	26.179000
13.789969	1.157118	26.225000
13.815366	1.164044	26.271000
13.901672	1.188984	26.317000
13.925801	1.186576	26.477000
13.949975	1.184931	26.522000
13.974743	1.190698	26.567000
14.000217	1.196041	26.613000
14.025249	1.195650	26.660000
14.050168	1.194191	26.705000
14.135800	1.208368	26.752000
14.160145	1.221215	26.909000
14.184753	1.228998	26.955000
14.209627	1.228847	27.001000
14.235374	1.227593	27.048000
14.260220	1.224954	27.094000
14.285079	1.229128	27.140000
14.310935	1.235403	27.186000
14.335499	1.246052	27.232000
14.360330	1.249380	27.278000
14.385288	1.255967	27.325000
14.409784	1.258476	27.371000
14.612227	1.282596	27.416000
14.637606	1.281192	27.790000
14.730703	1.286908	27.836000
14.755470	1.295314	28.010000
14.780698	1.292091	28.056000
14.805977	1.297307	28.101000
14.831007	1.292552	28.147000
14.856120	1.282251	28.193000
14.881369	1.301696	28.240000
14.906564	1.302190	28.286000
14.931297	1.304619	28.332000
14.955813	1.307398	28.379000
14.980712	1.306977	28.425000
15.006670	1.306977	28.471000
15.093060	1.306193	28.517000
15.118415	1.312554	28.677000
15.143640	1.313649	28.723000
15.169051	1.315508	28.769000
15.194062	1.315518	28.815000
15.217734	1.326783	28.861000
15.242373	1.326242	28.907000
15.441808	1.327429	28.952000
15.467713	1.338789	29.322000
15.492754	1.335822	29.369000
15.517832	1.332093	29.415000
15.542678	1.331237	29.460000
15.567653	1.327779	29.506000
15.592831	1.330666	29.552000
15.689202	1.342228	29.597000
15.714922	1.339700	29.777000
15.739274	1.337633	29.823000
15.763550	1.339690	29.869000
15.788157	1.344335	29.915000
15.813426	1.342548	29.961000
15.838394	1.343864	30.006000
15.923389	1.350570	30.053000
15.948514	1.360629	30.209000
15.973717	1.362076	30.255000
15.998971	1.370734	30.302000
16.023286	1.373767	30.348000
16.048089	1.374593	30.395000
16.073026	1.374593	30.440000
16.098472	1.379047	30.487000
16.123786	1.380102	30.533000
16.149028	1.379387	30.579000
16.174303	1.385888	30.625000
16.199245	1.380152	30.672000
16.285652	1.394627	30.717000
16.310139	1.395402	30.877000
16.334734	1.392785	30.924000
16.359636	1.389056	30.969000
16.384599	1.400647	31.016000
16.409826	1.399491	31.062000
16.435489	1.402063	31.108000
16.519457	1.391329	31.154000
16.543850	1.401853	31.309000
16.568170	1.402979	31.355000
16.593017	1.405461	31.400000
16.618378	1.397609	31.447000
16.643532	1.390473	31.493000
16.668710	1.404025	31.540000
16.693958	1.402609	31.586000
16.718876	1.407453	31.631000
16.743196	1.409876	31.677000
16.767971	1.407934	31.723000
16.792921	1.411967	31.770000
16.879911	1.400627	31.815000
16.905271	1.394607	31.977000
16.930361	1.393881	32.023000
16.955670	1.387820	32.069000
16.980707	1.391884	32.115000
17.006569	1.393350	32.162000
17.031521	1.391259	32.208000
17.114558	1.387035	32.255000
17.139499	1.390182	32.409000
17.164666	1.387099	32.455000
17.189503	1.386064	32.501000
17.214785	1.388235	32.547000
17.240254	1.379993	32.594000
17.265502	1.381880	32.640000
17.290342	1.379047	32.686000
17.314584	1.376895	32.732000
17.339453	1.374813	32.779000
17.364737	1.374743	32.825000
17.389753	1.372792	32.871000
17.591159	1.369123	32.916000
17.615708	1.369748	33.290000
17.710658	1.371655	33.336000
17.736159	1.366350	33.510000
17.761350	1.364608	33.556000
17.786229	1.367025	33.603000
17.812084	1.368592	33.649000
17.836865	1.367946	33.695000
17.861444	1.371981	33.742000
17.885941	1.374037	33.788000
17.910753	1.377720	33.834000
17.936131	1.376575	33.880000
17.961348	1.381920	33.926000
17.986657	1.380153	33.972000
18.072679	1.379297	34.019000
18.097816	1.382555	34.177000
18.123152	1.379738	34.223000
18.147470	1.381669	34.269000
18.171957	1.381419	34.316000
18.196871	1.382655	34.362000
18.222549	1.380173	34.408000
18.421197	1.380363	34.455000
18.446497	1.379057	34.821000
18.471720	1.377911	34.868000
18.496370	1.369418	34.914000
18.522233	1.375288	34.960000
18.546171	1.377690	35.006000
18.570375	1.376080	35.052000
18.668138	1.381184	35.097000
18.693238	1.382505	35.277000
18.717093	1.382645	35.323000
18.742058	1.383901	35.368000
18.767458	1.384662	35.415000
18.792602	1.384311	35.462000
18.817831	1.393680	35.508000
18.902523	1.397028	35.553000
18.927005	1.394306	35.709000
18.951552	1.396012	35.756000
18.976828	1.399901	35.802000
19.001853	1.404155	35.848000
19.027199	1.402488	35.894000
19.052385	1.402304	35.941000
19.077184	1.406537	35.987000
19.102793	1.399480	36.032000
19.126542	1.403644	36.078000
19.151489	1.404871	36.124000
19.176248	1.406667	36.171000
19.262774	1.407453	36.216000
19.288744	1.406187	36.378000
19.313640	1.406948	36.424000
19.339236	1.400997	36.471000
19.364159	1.398765	36.517000
19.389633	1.395421	36.563000
19.414507	1.396448	36.609000
19.497156	1.387589	36.655000
19.522213	1.387609	36.809000
19.547333	1.389186	36.855000
19.572982	1.388595	36.901000
19.597926	1.383316	36.948000
19.623307	1.385117	36.994000
19.648015	1.386163	37.040000
19.672778	1.385007	37.087000
19.696749	1.375408	37.132000
19.721657	1.379036	37.178000
19.747091	1.383376	37.224000
19.772149	1.377790	37.270000
19.859463	1.386984	37.317000
19.884365	1.383852	37.477000
19.909333	1.381529	37.523000
19.934886	1.375173	37.570000
19.959971	1.385468	37.616000
19.984381	1.383681	37.662000
20.008980	1.380013	37.708000
20.093740	1.377781	37.754000
20.118457	1.369608	37.909000
20.143578	1.356286	37.955000
20.168836	1.368732	38.002000
20.193928	1.368813	38.048000
20.219566	1.366140	38.095000
20.243934	1.363442	38.141000
20.268634	1.355696	38.188000
20.293913	1.348809	38.234000
20.318379	1.349554	38.279000
20.343834	1.347943	38.325000
20.368969	1.344535	38.372000
20.570160	1.315503	38.417000
20.595629	1.310042	38.789000
20.689411	1.300487	38.836000
20.714620	1.296000	39.010000
20.739774	1.299602	39.056000
20.764277	1.288974	39.102000
20.788735	1.282852	39.148000
20.814133	1.279439	39.195000
20.839213	1.276620	39.240000
20.864204	1.272233	39.286000
20.889283	1.269544	39.332000
20.914288	1.266740	39.379000
20.939350	1.261334	39.425000
20.964392	1.259456	39.470000
21.051325	1.248771	39.517000
21.075873	1.245618	39.677000
21.100397	1.245168	39.723000
21.125201	1.244612	39.768000
21.150338	1.242438	39.815000
21.175564	1.240035	39.862000
21.201158	1.238522	39.908000
21.400455	1.235553	39.954000
21.425298	1.220216	40.322000
21.450890	1.223035	40.368000
21.474941	1.223414	40.414000
21.499101	1.224140	40.460000
21.524524	1.225174	40.506000
21.549171	1.215769	40.552000
21.646393	1.212016	40.598000
21.671664	1.211591	40.778000
21.696733	1.213420	40.824000
21.721685	1.213871	40.870000
21.747494	1.212296	40.916000
21.771973	1.207629	40.962000
21.797630	1.212076	41.008000
21.880247	1.214475	41.054000
21.905602	1.214395	41.210000
21.930650	1.217968	41.256000
21.955921	1.218208	41.302000
21.981042	1.216150	41.348000
22.006369	1.219603	41.394000
22.031288	1.220937	41.441000
22.055445	1.227098	41.486000
22.080072	1.228837	41.533000
22.104786	1.235493	41.579000
22.130071	1.240110	41.625000
22.155866	1.237108	41.671000
22.242157	1.250284	41.717000
22.267370	1.253058	41.877000
22.292708	1.254883	41.923000
22.317831	1.255262	41.970000
22.342701	1.256406	42.015000
22.367044	1.260274	42.062000
22.392009	1.264821	42.108000
22.476101	1.265562	42.154000
22.502025	1.270753	42.309000
22.527407	1.269919	42.356000
22.552184	1.269324	42.401000
22.576921	1.273572	42.447000
22.600807	1.271303	42.493000
22.625880	1.272358	42.539000
22.650734	1.273722	42.585000
22.675692	1.275891	42.631000
22.701182	1.277195	42.677000
22.726810	1.276400	42.724000
22.751895	1.276320	42.770000
22.838827	1.282181	42.816000
22.863854	1.278309	42.978000
22.888795	1.285406	43.023000
22.913201	1.282877	43.070000
22.938222	1.283027	43.116000
22.963230	1.286450	43.162000
22.988268	1.293845	43.208000
23.072984	1.301376	43.255000
23.098265	1.312889	43.410000
23.123103	1.328955	43.456000
23.147345	1.333480	43.501000
23.171701	1.342988	43.548000
23.197477	1.344850	43.594000
23.222520	1.352497	43.640000
