Sample	2mm tape 
date	08/01/2025
	
Temperature (K)	77.00
Angle (deg.)	0.000000
field / T	0.150000
	
		
Approx. trace time (s)	120.0	
		
Current / A	V1  -sample/ uV	time/s
-0.017609	0.375501	0.000000
-0.018060	0.385154	0.046000
-0.017512	0.399577	0.092000
-0.017481	0.417184	0.139000
-0.018169	0.433065	0.185000
-0.017384	0.452309	0.231000
-0.017829	0.469971	0.277000
-0.017512	0.487998	0.323000
-0.018492	0.504153	0.369000
-0.017439	0.521413	0.415000
-0.017487	0.537570	0.462000
-0.017775	0.553105	0.508000
-0.017324	0.564904	0.554000
-0.017956	0.578938	0.599000
0.003978	0.592704	0.647000
0.029602	0.637380	0.824000
0.114375	0.665171	0.870000
0.138152	0.668472	1.025000
0.163328	0.670918	1.071000
0.189306	0.672319	1.118000
0.212950	0.673669	1.164000
0.238904	0.675205	1.210000
0.263349	0.675165	1.256000
0.288910	0.678654	1.303000
0.315092	0.679032	1.348000
0.339392	0.677294	1.395000
0.363820	0.675266	1.441000
0.388970	0.672440	1.487000
0.413197	0.669110	1.533000
0.438073	0.665272	1.578000
0.462958	0.659802	1.624000
0.488047	0.656001	1.669000
0.513059	0.654691	1.715000
0.600807	0.652447	1.761000
0.625379	0.646653	1.923000
0.709583	0.652335	1.969000
0.734430	0.659311	2.126000
0.760117	0.657758	2.172000
0.784793	0.665741	2.219000
0.810474	0.672980	2.265000
0.835507	0.679487	2.311000
0.860596	0.687145	2.356000
0.885540	0.692626	2.403000
0.910642	0.702252	2.449000
0.935632	0.706129	2.496000
0.959768	0.709132	2.543000
0.984957	0.711889	2.589000
1.009911	0.716201	2.634000
1.035532	0.722486	2.681000
1.060544	0.715791	2.727000
1.085834	0.718321	2.774000
1.111201	0.717610	2.820000
1.311215	0.720152	2.866000
1.336523	0.741435	3.236000
1.361283	0.745055	3.282000
1.385953	0.744833	3.328000
1.410393	0.748362	3.375000
1.435684	0.746801	3.421000
1.460787	0.743708	3.467000
1.486121	0.742279	3.513000
1.511394	0.744843	3.560000
1.536375	0.746322	3.606000
1.561776	0.746342	3.652000
1.586617	0.749487	3.698000
1.611053	0.750917	3.744000
1.635610	0.753888	3.790000
1.660710	0.752032	3.837000
1.685874	0.749669	3.883000
1.711289	0.749437	3.929000
1.795521	0.748664	3.974000
2.006855	0.745291	4.129000
2.032151	0.747496	4.522000
2.057261	0.747155	4.568000
2.082431	0.748108	4.613000
2.108069	0.747124	4.660000
2.132556	0.747653	4.706000
2.157232	0.750460	4.752000
2.181502	0.754654	4.798000
2.207020	0.756736	4.844000
2.232532	0.761400	4.891000
2.257585	0.765371	4.937000
2.282760	0.773862	4.984000
2.307625	0.780107	5.030000
2.392184	0.788052	5.076000
2.488423	0.800618	5.231000
2.513276	0.799594	5.409000
2.537826	0.797709	5.456000
2.562664	0.797588	5.501000
2.587742	0.795180	5.547000
2.613062	0.793491	5.594000
2.638157	0.794454	5.640000
2.663295	0.794161	5.687000
2.688779	0.792284	5.732000
2.713608	0.791758	5.779000
2.738899	0.788786	5.825000
2.763560	0.786993	5.872000
2.787706	0.785035	5.918000
2.812905	0.784292	5.963000
2.838037	0.782399	6.010000
2.863266	0.784640	6.055000
2.888192	0.786993	6.102000
2.983901	0.782814	6.147000
3.008503	0.778461	6.324000
3.092480	0.767759	6.370000
3.117679	0.764645	6.526000
3.142628	0.762161	6.573000
3.168350	0.758370	6.619000
3.193105	0.754242	6.666000
3.218804	0.744539	6.711000
3.243959	0.739683	6.758000
3.269202	0.730071	6.804000
3.293729	0.718036	6.850000
3.318014	0.711937	6.896000
3.342653	0.705491	6.943000
3.368169	0.700749	6.989000
3.393427	0.701300	7.035000
3.418243	0.700183	7.082000
3.444098	0.699521	7.128000
3.469291	0.698040	7.174000
3.494906	0.698343	7.221000
3.579240	0.702498	7.267000
3.603626	0.717012	7.424000
3.688800	0.741934	7.470000
3.713581	0.749304	7.627000
3.738799	0.755033	7.673000
3.764077	0.761359	7.718000
3.788960	0.767910	7.765000
3.814302	0.773091	7.811000
3.838924	0.771783	7.857000
3.863681	0.773343	7.904000
3.888000	0.777603	7.949000
3.913464	0.776720	7.996000
3.938445	0.779641	8.042000
3.963989	0.779374	8.088000
3.988929	0.780026	8.134000
4.014280	0.778931	8.180000
4.039054	0.783271	8.227000
4.063999	0.789961	8.273000
4.088764	0.795589	8.319000
4.290012	0.800031	8.365000
4.314719	0.827462	8.735000
4.339473	0.829703	8.781000
4.364488	0.830442	8.828000
4.389894	0.831903	8.875000
4.414958	0.831974	8.922000
4.440612	0.835675	8.967000
4.465549	0.839800	9.013000
4.490947	0.845043	9.059000
4.516077	0.849694	9.106000
4.540523	0.848064	9.153000
4.565238	0.851924	9.198000
4.590511	0.855060	9.246000
4.615785	0.861496	9.292000
4.640942	0.866070	9.338000
4.665951	0.870986	9.385000
4.691642	0.876413	9.431000
4.775480	0.881797	9.477000
4.985839	0.910743	9.632000
5.011435	0.912893	10.021000
5.036457	0.913785	10.067000
5.060836	0.915660	10.114000
5.085824	0.915609	10.160000
5.110489	0.926467	10.206000
5.135804	0.931577	10.253000
5.160839	0.936450	10.298000
5.186060	0.942654	10.345000
5.211296	0.948644	10.391000
5.236488	0.951031	10.438000
5.261849	0.951243	10.483000
5.286574	0.954362	10.530000
5.370251	0.962077	10.577000
5.466104	0.994614	10.731000
5.491447	1.001772	10.909000
5.516487	1.015144	10.956000
5.541774	1.029249	11.002000
5.566980	1.041955	11.048000
5.592277	1.052434	11.093000
5.617511	1.060649	11.140000
5.642448	1.072297	11.186000
5.666943	1.081538	11.233000
5.691593	1.089682	11.279000
5.716429	1.102028	11.325000
5.742138	1.112426	11.371000
5.766568	1.125056	11.417000
5.792017	1.130996	11.463000
5.817231	1.137562	11.510000
5.842552	1.142837	11.556000
5.867554	1.145554	11.602000
5.962027	1.149855	11.648000
5.987123	1.152520	11.824000
6.071216	1.154141	11.870000
6.096509	1.152884	12.026000
6.121573	1.152495	12.072000
6.146974	1.157690	12.118000
6.172201	1.162425	12.165000
6.197368	1.164228	12.211000
6.222113	1.167554	12.257000
6.246682	1.170069	12.303000
6.271787	1.173969	12.350000
6.296735	1.181188	12.396000
6.322045	1.186947	12.443000
6.347020	1.195640	12.489000
6.372439	1.203031	12.535000
6.398033	1.206914	12.581000
6.422582	1.214620	12.627000
6.446900	1.221859	12.673000
6.471436	1.229453	12.719000
6.557274	1.235384	12.765000
6.582548	1.258566	12.923000
6.667526	1.277431	12.969000
6.692704	1.278053	13.125000
6.717625	1.276887	13.172000
6.742366	1.276154	13.218000
6.767075	1.271798	13.265000
6.792018	1.268765	13.311000
6.817266	1.270409	13.357000
6.842639	1.265745	13.404000
6.867357	1.262713	13.449000
6.892882	1.256953	13.496000
6.918220	1.255241	13.543000
6.943541	1.252168	13.589000
6.955627	1.250961	13.635000
6.993289	1.250147	13.681000
7.017290	1.250728	13.727000
7.042289	1.255957	13.773000
7.067493	1.259703	13.819000
7.268161	1.265589	13.865000
7.293172	1.303328	14.236000
7.318675	1.305881	14.282000
7.343591	1.307496	14.329000
7.369057	1.306259	14.375000
7.393853	1.305346	14.421000
7.418580	1.301322	14.467000
7.443395	1.298522	14.513000
7.467931	1.298401	14.559000
7.493925	1.294478	14.605000
7.518838	1.293585	14.652000
7.544407	1.292792	14.698000
7.569600	1.294599	14.745000
7.594412	1.294721	14.791000
7.619625	1.292907	14.836000
7.644373	1.291253	14.883000
7.668953	1.294508	14.929000
7.752851	1.300095	14.975000
7.965829	1.352002	15.130000
7.989868	1.358066	15.522000
8.014969	1.354854	15.568000
8.040006	1.352239	15.614000
8.064664	1.351650	15.660000
8.090575	1.351498	15.707000
8.116055	1.346965	15.753000
8.140708	1.341034	15.799000
8.165993	1.340497	15.845000
8.191296	1.337485	15.892000
8.216009	1.328236	15.938000
8.240192	1.323453	15.984000
8.264924	1.317106	16.030000
8.349142	1.312209	16.076000
8.445673	1.309086	16.230000
8.470798	1.313568	16.409000
8.496201	1.319479	16.455000
8.520684	1.323442	16.501000
8.546235	1.327050	16.548000
8.570659	1.332609	16.594000
8.595025	1.331038	16.640000
8.620403	1.338550	16.686000
8.645304	1.338439	16.731000
8.671094	1.337882	16.778000
8.696067	1.339362	16.824000
8.721328	1.337913	16.871000
8.746144	1.337465	16.917000
8.771367	1.338155	16.963000
8.795497	1.340184	17.009000
8.820447	1.339777	17.055000
8.845514	1.342556	17.102000
8.940765	1.338611	17.148000
8.965779	1.338963	17.324000
9.050746	1.333036	17.369000
9.076405	1.331765	17.526000
9.101084	1.327853	17.572000
9.125651	1.322104	17.618000
9.150163	1.323098	17.664000
9.175144	1.316985	17.711000
9.200315	1.314734	17.756000
9.226029	1.313102	17.803000
9.251410	1.311538	17.849000
9.276263	1.310392	17.896000
9.301704	1.311428	17.942000
9.326528	1.313699	17.989000
9.351498	1.316691	18.034000
9.376340	1.318283	18.081000
9.400822	1.320594	18.127000
9.426183	1.320997	18.173000
9.450676	1.322734	18.218000
9.537039	1.325299	18.264000
9.562109	1.328878	18.424000
9.646912	1.319642	18.470000
9.671556	1.311765	18.626000
9.696068	1.307445	18.672000
9.721236	1.298289	18.718000
9.746118	1.291882	18.764000
9.771075	1.279147	18.810000
9.796280	1.274624	18.855000
9.821463	1.267244	18.902000
9.846365	1.261545	18.948000
9.870937	1.254536	18.994000
9.896237	1.247006	19.041000
9.921120	1.242514	19.087000
9.946004	1.243245	19.134000
9.971093	1.235820	19.180000
9.996433	1.226735	19.226000
10.022024	1.216830	19.273000
10.047193	1.211323	19.319000
10.247745	1.197159	19.365000
10.272779	1.128149	19.735000
10.297966	1.121622	19.782000
10.323017	1.112462	19.828000
10.347091	1.105758	19.874000
10.372011	1.098145	19.920000
10.396646	1.091320	19.966000
10.422162	1.082498	20.012000
10.447457	1.075177	20.058000
10.472075	1.071523	20.105000
10.497523	1.063692	20.150000
10.522950	1.057226	20.197000
10.548473	1.052409	20.243000
10.572670	1.046584	20.290000
10.597287	1.045508	20.337000
10.622485	1.037252	20.382000
10.647705	1.032777	20.429000
10.732165	1.028288	20.475000
10.942770	0.977060	20.630000
10.968461	0.968248	21.021000
10.993301	0.960917	21.068000
11.019348	0.954255	21.113000
11.043734	0.946171	21.160000
11.068914	0.938861	21.205000
11.093882	0.929826	21.251000
11.118328	0.921038	21.298000
11.142936	0.912563	21.344000
11.167820	0.899352	21.390000
11.193057	0.891240	21.437000
11.218753	0.881659	21.483000
11.244135	0.871517	21.529000
11.327801	0.860997	21.575000
11.424781	0.808605	21.730000
11.449683	0.802105	21.909000
11.474630	0.789035	21.955000
11.498945	0.784483	22.001000
11.523780	0.776980	22.047000
11.549028	0.776270	22.093000
11.573953	0.772144	22.139000
11.599340	0.767339	22.186000
11.624357	0.763921	22.232000
11.649824	0.758516	22.278000
11.674984	0.756693	22.324000
11.699597	0.752231	22.370000
11.724109	0.750680	22.416000
11.748749	0.745753	22.463000
11.774519	0.741656	22.510000
11.799302	0.739433	22.556000
11.825059	0.736142	22.602000
11.919867	0.734820	22.648000
11.945408	0.732674	22.823000
12.029794	0.731275	22.870000
12.054165	0.730969	23.025000
12.079078	0.730514	23.072000
12.103711	0.730746	23.118000
12.129864	0.731791	23.165000
12.154666	0.735623	23.211000
12.179674	0.737257	23.257000
12.205101	0.744128	23.304000
12.229956	0.749403	23.349000
12.254937	0.755233	23.396000
12.279011	0.768177	23.442000
12.304034	0.773715	23.488000
12.329121	0.780509	23.534000
12.354383	0.789479	23.580000
12.379643	0.800096	23.627000
12.404680	0.807631	23.673000
12.430159	0.813556	23.719000
12.515604	0.825915	23.765000
12.541063	0.857201	23.924000
12.624076	0.878639	23.970000
12.649810	0.884894	24.125000
12.674549	0.890926	24.172000
12.700155	0.903581	24.218000
12.725523	0.911437	24.265000
12.750373	0.922541	24.311000
12.775439	0.931794	24.357000
12.799737	0.943390	24.402000
12.824309	0.953395	24.449000
12.849310	0.964299	24.495000
12.874667	0.977019	24.541000
12.900038	0.986230	24.588000
12.925017	0.994759	24.634000
12.950674	1.004273	24.680000
12.975241	1.011047	24.726000
13.000814	1.012467	24.773000
13.025957	1.016896	24.820000
13.226214	1.016406	24.865000
13.251610	1.021507	25.236000
13.276201	1.021446	25.282000
13.301095	1.017250	25.329000
13.325805	1.010072	25.375000
13.351510	1.003706	25.421000
13.376767	1.000699	25.468000
13.402247	0.991907	25.514000
13.427176	0.985906	25.561000
13.452645	0.978870	25.607000
13.478295	0.974552	25.654000
13.502796	0.971569	25.700000
13.527442	0.972197	25.746000
13.551596	0.972818	25.792000
13.577169	0.975953	25.838000
13.602308	0.978197	25.884000
13.626986	0.979815	25.931000
13.711420	0.984678	25.976000
13.921995	0.978453	26.132000
13.947516	0.980259	26.521000
13.972989	0.980188	26.568000
13.997953	0.979925	26.614000
14.022981	0.972665	26.660000
14.046807	0.969070	26.706000
14.072303	0.965229	26.753000
14.097118	0.963606	26.799000
14.122086	0.954976	26.845000
14.147636	0.951210	26.891000
14.173267	0.947686	26.938000
14.198538	0.941145	26.984000
14.223539	0.934597	27.031000
14.306102	0.927784	27.077000
14.403483	0.894535	27.232000
14.427875	0.887741	27.409000
14.453097	0.882864	27.456000
14.478232	0.879763	27.502000
14.502998	0.873475	27.548000
14.528524	0.870951	27.595000
14.553655	0.865030	27.641000
14.578805	0.861431	27.687000
14.603840	0.857356	27.733000
14.628843	0.853989	27.780000
14.653581	0.846372	27.825000
14.678062	0.844337	27.872000
14.703328	0.841042	27.918000
14.728407	0.834847	27.965000
14.754155	0.834055	28.011000
14.779516	0.830679	28.057000
14.804441	0.825448	28.104000
14.898689	0.826311	28.150000
14.923664	0.823066	28.324000
15.008073	0.830839	28.370000
15.033077	0.833782	28.526000
15.058610	0.841193	28.572000
15.083328	0.847684	28.617000
15.109178	0.851161	28.664000
15.134321	0.857437	28.711000
15.159264	0.862888	28.757000
15.183923	0.871571	28.803000
15.209044	0.878251	28.849000
15.233782	0.889871	28.896000
15.259000	0.902940	28.942000
15.283964	0.913373	28.988000
15.309050	0.926120	29.035000
15.334842	0.937085	29.081000
15.360249	0.950406	29.128000
15.385168	0.958651	29.174000
15.410572	0.971295	29.220000
15.531562	0.984687	29.266000
15.595716	1.059427	29.491000
15.620623	1.065090	29.609000
15.646150	1.074078	29.656000
15.670970	1.082944	29.701000
15.695731	1.087490	29.748000
15.720073	1.088435	29.794000
15.744978	1.093552	29.840000
15.770189	1.093238	29.886000
15.795018	1.095462	29.932000
15.820739	1.092894	29.978000
15.845620	1.089684	30.024000
15.871074	1.085094	30.071000
15.895696	1.082040	30.117000
15.920270	1.077733	30.163000
15.944469	1.075458	30.208000
15.970039	1.069184	30.255000
15.995287	1.069265	30.301000
16.204655	1.067425	30.348000
16.300360	1.039886	30.736000
16.325004	1.047197	30.912000
16.350610	1.054430	30.958000
16.375880	1.059364	31.004000
16.401049	1.059587	31.050000
16.426069	1.067579	31.097000
16.451509	1.073964	31.143000
16.476292	1.077629	31.189000
16.500773	1.081835	31.235000
16.525412	1.090951	31.282000
16.550064	1.094883	31.327000
16.575508	1.103422	31.374000
16.600602	1.110671	31.419000
16.686375	1.110581	31.465000
16.711713	1.092963	31.624000
16.910860	1.029417	31.670000
16.936586	1.019474	32.038000
16.960676	1.011749	32.084000
16.985524	1.003129	32.130000
17.010267	0.990355	32.176000
17.035446	0.983965	32.223000
17.060947	0.975548	32.269000
17.085868	0.970806	32.315000
17.111558	0.960493	32.362000
17.136377	0.961332	32.408000
17.161420	0.954714	32.454000
17.186230	0.954481	32.500000
17.282605	0.953617	32.546000
17.306522	0.951474	32.724000
17.390888	0.937556	32.770000
17.415763	0.934255	32.925000
17.440525	0.932354	32.971000
17.465852	0.929574	33.017000
17.491733	0.931005	33.063000
17.516622	0.927157	33.110000
17.541261	0.925480	33.156000
17.565479	0.921889	33.202000
17.591007	0.918699	33.248000
17.615667	0.918160	33.294000
17.640973	0.920532	33.341000
17.666399	0.919032	33.387000
17.691351	0.917947	33.433000
17.716325	0.919935	33.479000
17.741352	0.924691	33.525000
17.765683	0.929271	33.571000
17.790141	0.936222	33.617000
17.877420	0.945170	33.664000
17.902502	0.970857	33.824000
17.987195	0.997978	33.870000
18.012214	1.005900	34.026000
18.037247	1.011870	34.071000
18.062641	1.013821	34.117000
18.087445	1.022113	34.165000
18.111892	1.020277	34.211000
18.136856	1.029129	34.257000
18.162196	1.031162	34.302000
18.187059	1.032400	34.349000
18.212336	1.038826	34.395000
18.237570	1.042785	34.441000
18.262551	1.047163	34.488000
18.287459	1.052744	34.534000
18.312415	1.060362	34.580000
18.336837	1.067000	34.626000
18.361403	1.070423	34.672000
18.386791	1.075938	34.718000
18.473212	1.077460	34.764000
18.498153	1.084771	34.923000
18.583149	1.082113	34.969000
18.608234	1.078306	35.126000
18.633608	1.076497	35.172000
18.657675	1.075147	35.218000
18.682431	1.073281	35.265000
18.707569	1.071350	35.311000
18.733011	1.070132	35.357000
18.758320	1.069450	35.404000
18.782988	1.070283	35.449000
18.808707	1.070375	35.496000
18.833430	1.072771	35.542000
18.857788	1.074813	35.588000
18.882581	1.077199	35.633000
18.907644	1.081850	35.680000
18.933098	1.087658	35.727000
18.958096	1.090166	35.773000
18.983626	1.100544	35.819000
19.183903	1.105019	35.866000
19.208792	1.150043	36.236000
19.234524	1.155772	36.282000
19.259420	1.162248	36.329000
19.284887	1.167958	36.374000
19.309303	1.172954	36.421000
19.333882	1.178493	36.466000
19.359047	1.180339	36.513000
19.383811	1.188683	36.559000
19.408944	1.194096	36.605000
19.434025	1.200007	36.651000
19.459393	1.206281	36.697000
19.484418	1.213317	36.743000
19.509455	1.219910	36.790000
19.534069	1.224908	36.836000
19.558821	1.232530	36.882000
19.584330	1.237411	36.929000
19.668428	1.242352	36.975000
19.880055	1.243069	37.130000
19.904629	1.242382	37.521000
19.929942	1.244714	37.567000
19.955286	1.248172	37.614000
19.980745	1.249429	37.660000
20.005983	1.252775	37.707000
20.031212	1.259151	37.753000
20.056786	1.264567	37.799000
20.081312	1.267415	37.846000
20.106354	1.273113	37.892000
20.130824	1.278081	37.938000
20.155970	1.283332	37.984000
20.180682	1.289994	38.031000
20.265294	1.294698	38.078000
20.361133	1.326137	38.232000
20.386838	1.327499	38.409000
20.411727	1.324910	38.456000
20.436802	1.322683	38.502000
20.461426	1.324517	38.548000
20.486262	1.323047	38.595000
20.511308	1.319397	38.641000
20.536977	1.313183	38.688000
20.561987	1.309958	38.734000
20.587089	1.309025	38.780000
20.612069	1.306166	38.826000
20.637592	1.303547	38.872000
20.662594	1.300124	38.919000
20.687757	1.298237	38.965000
20.711793	1.298217	39.011000
20.736513	1.301225	39.058000
20.762164	1.299767	39.104000
20.856265	1.300114	39.150000
20.881517	1.296270	39.324000
20.966154	1.299889	39.370000
20.991573	1.294233	39.526000
21.016338	1.295490	39.572000
21.040910	1.291644	39.619000
21.065843	1.290196	39.665000
21.090814	1.291911	39.711000
21.116260	1.293118	39.757000
21.141361	1.298288	39.804000
21.166446	1.303804	39.850000
21.192051	1.311124	39.896000
21.217017	1.314794	39.942000
21.241220	1.321881	39.988000
21.266097	1.328318	40.035000
21.291099	1.334798	40.081000
21.316126	1.341215	40.128000
21.342144	1.347137	40.174000
21.367134	1.351831	40.220000
21.452457	1.356484	40.267000
21.477866	1.368860	40.424000
21.561126	1.368462	40.470000
21.585692	1.364685	40.625000
21.610680	1.361672	40.672000
21.636065	1.356990	40.716000
21.660961	1.351957	40.764000
21.686593	1.345339	40.810000
21.711637	1.338707	40.856000
21.737104	1.333325	40.902000
21.760928	1.322770	40.948000
21.786051	1.313482	40.995000
21.811378	1.313411	41.041000
21.836593	1.311151	41.088000
21.861674	1.310258	41.133000
21.886545	1.306486	41.180000
21.912414	1.310359	41.227000
21.937339	1.306223	41.272000
21.962206	1.304013	41.319000
22.162981	1.303557	41.365000
22.187785	1.306011	41.736000
22.213008	1.307905	41.782000
22.237174	1.312296	41.827000
22.261976	1.316450	41.874000
22.287295	1.320995	41.920000
22.312430	1.323709	41.967000
22.337775	1.328383	42.012000
22.362996	1.327950	42.060000
22.388876	1.329529	42.106000
22.413534	1.330806	42.153000
22.438690	1.332422	42.198000
22.463542	1.335460	42.245000
22.488223	1.333689	42.291000
22.513646	1.330505	42.338000
22.539172	1.330495	42.384000
22.564405	1.331458	42.431000
