Sample	2mm tape 
date	07/01/2025
	
Temperature (K)	77.00
Angle (deg.)	0.000000
field / T	0.000000
	
		
Approx. trace time (s)	120.0	
		
Current / A	V1  -sample/ uV	time/s
-0.018602	-0.794157	0.000000
-0.018676	-0.797100	0.046000
-0.018486	-0.798931	0.093000
-0.018382	-0.802370	0.138000
-0.019260	-0.803836	0.185000
-0.018388	-0.806238	0.231000
-0.019303	-0.807995	0.277000
-0.018504	-0.808280	0.323000
-0.018252	-0.808390	0.369000
-0.019211	-0.809376	0.416000
-0.018461	-0.809316	0.461000
-0.018283	-0.807074	0.508000
-0.018958	-0.806349	0.554000
0.033618	-0.804902	0.725000
0.057217	-0.805668	0.876000
0.082589	-0.804661	0.923000
0.109011	-0.803141	0.969000
0.133799	-0.801014	1.015000
0.158685	-0.797796	1.062000
0.183956	-0.797130	1.107000
0.210320	-0.796054	1.155000
0.234547	-0.793692	1.200000
0.258548	-0.791975	1.247000
0.283904	-0.789333	1.293000
0.308635	-0.787811	1.339000
0.333950	-0.786820	1.385000
0.359469	-0.785925	1.431000
0.383901	-0.785955	1.478000
0.408907	-0.784648	1.524000
0.434301	-0.783252	1.570000
0.459904	-0.782076	1.617000
0.547590	-0.780745	1.663000
0.628783	-0.759650	1.825000
0.653956	-0.754710	1.976000
0.679191	-0.748380	2.023000
0.704168	-0.742449	2.069000
0.729843	-0.736028	2.116000
0.755366	-0.729232	2.162000
0.780079	-0.721985	2.208000
0.804661	-0.714393	2.254000
0.829063	-0.706076	2.300000
0.854018	-0.697302	2.346000
0.879087	-0.689190	2.392000
0.903929	-0.681408	2.438000
0.929419	-0.671173	2.483000
0.954702	-0.661474	2.530000
0.979727	-0.654668	2.576000
1.004391	-0.646416	2.623000
1.029055	-0.638718	2.669000
1.053935	-0.632808	2.715000
1.143073	-0.625742	2.761000
1.224974	-0.604276	2.925000
1.250226	-0.602078	3.076000
1.275485	-0.599456	3.123000
1.300705	-0.597559	3.170000
1.326049	-0.596655	3.216000
1.350795	-0.593798	3.262000
1.374714	-0.592463	3.308000
1.400016	-0.591588	3.354000
1.424800	-0.589720	3.400000
1.450293	-0.587886	3.446000
1.475239	-0.581609	3.492000
1.500184	-0.577456	3.538000
1.525842	-0.571135	3.584000
1.550819	-0.565953	3.632000
1.575476	-0.561285	3.677000
1.600118	-0.554129	3.724000
1.625704	-0.547947	3.771000
1.650361	-0.539617	3.817000
1.738690	-0.531666	3.863000
1.935653	-0.432637	4.025000
1.960605	-0.422178	4.389000
1.986184	-0.411639	4.436000
2.011251	-0.401521	4.482000
2.036443	-0.393311	4.528000
2.061268	-0.385333	4.574000
2.085768	-0.375845	4.620000
2.110745	-0.368448	4.666000
2.136031	-0.359855	4.713000
2.161382	-0.350857	4.759000
2.186519	-0.342113	4.806000
2.212110	-0.333255	4.853000
2.237185	-0.322701	4.899000
2.262203	-0.311966	4.945000
2.461127	-0.300425	4.991000
2.485946	-0.210277	5.359000
2.510742	-0.199622	5.405000
2.535419	-0.189077	5.451000
2.560934	-0.177692	5.497000
2.586067	-0.167976	5.544000
2.611387	-0.160206	5.590000
2.636642	-0.153445	5.636000
2.661625	-0.146174	5.682000
2.686995	-0.139293	5.728000
2.711742	-0.132946	5.775000
2.736401	-0.124996	5.821000
2.761456	-0.119269	5.868000
2.786236	-0.115281	5.914000
2.811747	-0.110664	5.960000
2.836762	-0.106690	6.006000
2.930813	-0.102908	6.053000
3.011806	-0.098051	6.225000
3.037306	-0.098251	6.376000
3.062283	-0.099564	6.423000
3.087746	-0.099345	6.469000
3.113128	-0.100195	6.516000
3.138958	-0.100125	6.563000
3.164064	-0.099654	6.609000
3.188625	-0.099385	6.656000
3.213629	-0.097906	6.702000
3.238717	-0.097636	6.749000
3.263655	-0.097355	6.795000
3.289037	-0.097416	6.842000
3.313732	-0.096591	6.888000
3.338709	-0.097265	6.933000
3.364258	-0.099275	6.980000
3.389708	-0.098369	7.026000
3.414361	-0.099125	7.072000
3.439724	-0.099385	7.119000
3.525925	-0.100590	7.166000
3.607865	-0.112982	7.325000
3.632856	-0.115030	7.476000
3.657897	-0.116850	7.522000
3.682947	-0.116786	7.568000
3.707607	-0.118774	7.614000
3.732509	-0.118764	7.660000
3.757112	-0.116666	7.707000
3.782681	-0.115041	7.754000
3.807469	-0.112852	7.800000
3.832787	-0.109814	7.846000
3.858513	-0.105387	7.893000
3.883624	-0.101199	7.939000
3.908622	-0.098251	7.984000
3.932148	-0.091844	8.030000
3.957652	-0.087287	8.077000
3.983135	-0.082865	8.123000
4.007676	-0.080111	8.170000
4.033468	-0.077592	8.216000
4.121244	-0.075028	8.262000
4.203809	-0.054471	8.425000
4.229031	-0.046200	8.577000
4.241053	-0.035310	8.623000
4.278402	-0.031477	8.669000
4.303021	-0.024722	8.715000
4.328636	-0.016551	8.762000
4.353901	-0.010459	8.808000
4.379105	-0.003604	8.854000
4.404562	0.003543	8.900000
4.429662	0.011913	8.946000
4.455091	0.020482	8.993000
4.479314	0.028898	9.039000
4.504156	0.037689	9.085000
4.528717	0.043910	9.132000
4.554367	0.046647	9.178000
4.579018	0.050726	9.224000
4.604371	0.054750	9.271000
4.629923	0.057893	9.317000
4.717095	0.061816	9.363000
4.914896	0.088271	9.525000
4.940241	0.088907	9.889000
4.965279	0.087126	9.936000
4.988971	0.084503	9.981000
5.014034	0.080954	10.028000
5.039618	0.077206	10.074000
5.064809	0.072902	10.120000
5.089841	0.067897	10.166000
5.114520	0.061281	10.213000
5.140207	0.054295	10.258000
5.165126	0.046877	10.305000
5.190427	0.038204	10.352000
5.214222	0.032401	10.398000
5.239241	0.025695	10.443000
5.438021	0.018789	10.490000
5.463237	-0.012075	10.856000
5.489067	-0.010690	10.903000
5.513916	-0.008352	10.949000
5.539016	-0.006398	10.996000
5.564372	-0.007147	11.042000
5.588871	-0.004959	11.088000
5.613989	-0.004239	11.135000
5.638722	-0.003965	11.181000
5.663719	-0.001596	11.227000
5.689004	0.000698	11.273000
5.714459	0.002167	11.320000
5.739828	0.002428	11.366000
5.764617	0.003232	11.412000
5.790502	0.004596	11.458000
5.815361	0.004887	11.505000
5.908882	0.006614	11.552000
5.990940	0.013570	11.725000
6.016386	0.014201	11.876000
6.041418	0.013077	11.923000
6.066706	0.012957	11.970000
6.091720	0.009953	12.016000
6.116052	0.005450	12.062000
6.141319	0.002047	12.109000
6.165807	-0.001015	12.155000
6.191792	-0.003184	12.201000
6.216941	-0.007498	12.248000
6.241931	-0.010300	12.293000
6.267369	-0.014193	12.339000
6.291965	-0.018570	12.386000
6.317223	-0.021580	12.432000
6.341231	-0.025023	12.478000
6.365851	-0.028436	12.524000
6.391341	-0.035382	12.570000
6.416313	-0.042447	12.616000
6.504262	-0.049958	12.662000
6.586899	-0.095067	12.825000
6.611961	-0.104211	12.976000
6.636654	-0.112353	13.023000
6.661520	-0.118964	13.069000
6.686276	-0.126834	13.116000
6.711783	-0.134150	13.162000
6.737061	-0.139393	13.208000
6.762002	-0.143245	13.255000
6.787659	-0.145914	13.301000
6.812783	-0.146224	13.347000
6.837918	-0.144200	13.393000
6.862655	-0.143515	13.440000
6.887426	-0.140222	13.487000
6.912288	-0.138497	13.533000
6.937438	-0.138044	13.579000
6.962814	-0.135735	13.625000
6.987914	-0.136529	13.672000
7.012831	-0.138098	13.718000
7.100113	-0.138808	13.764000
7.181910	-0.148613	13.925000
7.207202	-0.151655	14.077000
7.232173	-0.154024	14.123000
7.257427	-0.155953	14.170000
7.282366	-0.158282	14.215000
7.307944	-0.159567	14.262000
7.333060	-0.163759	14.308000
7.358240	-0.166573	14.355000
7.383347	-0.167956	14.401000
7.407297	-0.170825	14.447000
7.432746	-0.173420	14.493000
7.457842	-0.175183	14.540000
7.483486	-0.177222	14.586000
7.509499	-0.180705	14.633000
7.534497	-0.182021	14.680000
7.559547	-0.181235	14.726000
7.584381	-0.183007	14.772000
7.610009	-0.182857	14.818000
7.696721	-0.183893	14.864000
7.893045	-0.221462	15.025000
7.917642	-0.230110	15.388000
7.942958	-0.237136	15.435000
7.968806	-0.241586	15.482000
7.993709	-0.247056	15.528000
8.018926	-0.251290	15.574000
8.044238	-0.257720	15.621000
8.069392	-0.262475	15.667000
8.094178	-0.264967	15.713000
8.118620	-0.266063	15.759000
8.143365	-0.266343	15.804000
8.168363	-0.265863	15.851000
8.193726	-0.265252	15.897000
8.218968	-0.263741	15.943000
8.417994	-0.260828	15.989000
8.443430	-0.201229	16.357000
8.468505	-0.191510	16.404000
8.493633	-0.181610	16.450000
8.517734	-0.173889	16.496000
8.542742	-0.167937	16.542000
8.567746	-0.161150	16.588000
8.593146	-0.154899	16.635000
8.618447	-0.148363	16.681000
8.643558	-0.144990	16.727000
8.668947	-0.140497	16.774000
8.694014	-0.137533	16.821000
8.719624	-0.134984	16.866000
8.743642	-0.133611	16.913000
8.768900	-0.132327	16.959000
8.793715	-0.130587	17.005000
8.887749	-0.130277	17.052000
8.970374	-0.128699	17.225000
8.994489	-0.129142	17.376000
9.019358	-0.127829	17.422000
9.044107	-0.126240	17.468000
9.069632	-0.123822	17.514000
9.094093	-0.121303	17.561000
9.119578	-0.118583	17.606000
9.145010	-0.115161	17.652000
9.170391	-0.112393	17.699000
9.195694	-0.106197	17.746000
9.220873	-0.101008	17.792000
9.245019	-0.095772	17.838000
9.270101	-0.089556	17.885000
9.295202	-0.084518	17.932000
9.320407	-0.076113	17.978000
9.345924	-0.068423	18.024000
9.371322	-0.060906	18.070000
9.396483	-0.053690	18.117000
9.483819	-0.047549	18.163000
9.565406	0.004877	18.324000
9.590671	0.014382	18.477000
9.615611	0.025314	18.522000
9.640310	0.037188	18.569000
9.666098	0.049570	18.615000
9.690893	0.061561	18.661000
9.716389	0.071886	18.707000
9.741320	0.084422	18.754000
9.766083	0.094633	18.800000
9.791023	0.106719	18.846000
9.815860	0.117705	18.893000
9.841077	0.128460	18.938000
9.866245	0.136573	18.985000
9.891532	0.143014	19.032000
9.917233	0.151707	19.078000
9.941912	0.158229	19.124000
9.966889	0.165025	19.170000
9.991707	0.169819	19.217000
10.080174	0.173438	19.263000
10.160822	0.196666	19.424000
10.186437	0.201886	19.576000
10.211235	0.208687	19.622000
10.236994	0.215854	19.669000
10.262017	0.224251	19.715000
10.286712	0.233135	19.760000
10.311683	0.240222	19.808000
10.335803	0.249956	19.854000
10.361141	0.257487	19.900000
10.386097	0.267063	19.945000
10.411824	0.276023	19.992000
10.437200	0.286552	20.039000
10.462365	0.296562	20.085000
10.487659	0.305687	20.132000
10.512431	0.315692	20.177000
10.537265	0.322899	20.224000
10.561577	0.332707	20.270000
10.586577	0.341847	20.316000
10.674755	0.349619	20.362000
10.871551	0.421923	20.525000
10.897139	0.427895	20.889000
10.922750	0.432687	20.936000
10.947556	0.435826	20.981000
10.973013	0.438969	21.028000
10.998383	0.441438	21.074000
11.022897	0.442372	21.121000
11.047342	0.444550	21.167000
11.072821	0.444027	21.214000
11.097968	0.445715	21.260000
11.123497	0.443887	21.306000
11.148835	0.443616	21.353000
11.173609	0.442432	21.399000
11.385370	0.440957	21.445000
11.410628	0.443707	21.837000
11.435422	0.446046	21.883000
11.460657	0.449419	21.930000
11.485630	0.450323	21.975000
11.510704	0.454227	22.021000
11.536247	0.458178	22.067000
11.560869	0.462077	22.114000
11.585295	0.468204	22.160000
11.610309	0.471562	22.206000
11.635703	0.478368	22.253000
11.661211	0.483423	22.300000
11.686360	0.489884	22.346000
11.711081	0.496811	22.392000
11.735963	0.503557	22.438000
11.761466	0.509477	22.484000
11.786710	0.514773	22.531000
11.869168	0.521529	22.577000
11.948051	0.558269	22.731000
11.972729	0.565426	22.875000
11.997971	0.569900	22.922000
12.023490	0.575061	22.968000
12.048041	0.580320	23.014000
12.073428	0.584319	23.060000
12.098353	0.591146	23.107000
12.123350	0.596996	23.152000
12.147994	0.602867	23.199000
12.172891	0.609173	23.245000
12.198309	0.613977	23.292000
12.223685	0.622140	23.339000
12.249377	0.628100	23.385000
12.274761	0.634532	23.432000
12.300011	0.643620	23.478000
12.324848	0.651168	23.524000
12.349800	0.657584	23.571000
12.374603	0.663233	23.617000
12.462707	0.670711	23.663000
12.543992	0.697937	23.825000
12.569491	0.703243	23.976000
12.595110	0.708066	24.023000
12.620356	0.712843	24.069000
12.645560	0.717861	24.116000
12.670156	0.722178	24.162000
12.695538	0.726591	24.209000
12.720098	0.730334	24.256000
12.745130	0.734262	24.301000
12.770444	0.736761	24.348000
12.795306	0.740723	24.394000
12.821099	0.745431	24.441000
12.846192	0.748705	24.487000
12.871186	0.754106	24.532000
12.896071	0.758429	24.579000
12.920881	0.763631	24.625000
12.945943	0.770533	24.672000
12.970840	0.776129	24.719000
13.057725	0.783570	24.764000
13.176491	0.807976	24.925000
13.201265	0.816481	25.143000
13.227200	0.823737	25.190000
13.252403	0.829034	25.237000
13.277617	0.835471	25.283000
13.302423	0.840249	25.329000
13.327126	0.842567	25.376000
13.352221	0.846924	25.422000
13.377267	0.847325	25.469000
13.402406	0.851467	25.515000
13.427599	0.854950	25.561000
13.452857	0.857914	25.607000
13.478331	0.860583	25.654000
13.503964	0.862341	25.701000
13.529026	0.866025	25.747000
13.553897	0.865694	25.793000
13.578906	0.863966	25.840000
13.698321	0.862101	25.887000
13.850928	0.842296	26.108000
13.876400	0.842021	26.389000
13.902040	0.842737	26.436000
13.926667	0.841813	26.482000
13.951698	0.844645	26.529000
13.975987	0.846829	26.575000
14.001427	0.849653	26.621000
14.026475	0.849158	26.668000
14.051931	0.851118	26.714000
14.077030	0.851741	26.760000
14.102284	0.851621	26.806000
14.127581	0.852142	26.853000
14.152243	0.851188	26.899000
14.176926	0.853456	26.945000
14.375430	0.853046	26.991000
14.400571	0.848018	27.359000
14.425598	0.845266	27.404000
14.450838	0.841763	27.451000
14.476458	0.839094	27.497000
14.501339	0.834116	27.543000
14.526515	0.829064	27.589000
14.551385	0.824851	27.636000
14.575987	0.820334	27.681000
14.600360	0.816731	27.728000
14.625143	0.810618	27.774000
14.650935	0.807686	27.820000
14.675917	0.803712	27.867000
14.701551	0.800410	27.913000
14.726532	0.798520	27.959000
14.751945	0.794688	28.006000
14.845736	0.792708	28.051000
14.926765	0.769541	28.224000
14.952037	0.769266	28.376000
14.976569	0.766458	28.421000
15.002959	0.766138	28.468000
15.027763	0.765384	28.514000
15.052298	0.765284	28.560000
15.076944	0.767643	28.606000
15.102299	0.768306	28.653000
15.127569	0.769961	28.700000
15.153046	0.772864	28.746000
15.178220	0.774268	28.792000
15.203511	0.775944	28.838000
15.228834	0.775513	28.884000
15.254063	0.776467	28.931000
15.278120	0.775463	28.977000
15.302368	0.775068	29.023000
15.327779	0.772170	29.069000
15.353030	0.768366	29.115000
15.441298	0.765503	29.162000
15.523941	0.733352	29.324000
15.548667	0.728083	29.475000
15.573612	0.721688	29.522000
15.598492	0.715325	29.569000
15.623399	0.707535	29.615000
15.648644	0.699424	29.662000
15.673796	0.694077	29.708000
15.699282	0.686247	29.754000
15.724357	0.679189	29.801000
15.750015	0.671025	29.847000
15.774912	0.665940	29.893000
15.800168	0.658118	29.939000
15.825086	0.650480	29.985000
15.849978	0.644064	30.032000
15.874398	0.633038	30.079000
15.899577	0.625822	30.125000
15.924668	0.617639	30.172000
15.950473	0.609877	30.218000
16.037246	0.601744	30.265000
16.119775	0.556791	30.425000
16.144176	0.551341	30.577000
16.168990	0.542547	30.623000
16.194101	0.535210	30.669000
16.219768	0.528784	30.715000
16.245025	0.522173	30.762000
16.270064	0.514956	30.808000
16.295212	0.507394	30.855000
16.320475	0.500267	30.901000
16.345846	0.492880	30.947000
16.370187	0.487895	30.993000
16.395018	0.482385	31.040000
16.420045	0.475809	31.085000
16.445502	0.469878	31.133000
16.470713	0.462924	31.179000
16.495571	0.458391	31.225000
16.521119	0.452720	31.272000
16.546589	0.448523	31.318000
16.633359	0.445704	31.365000
16.830401	0.406131	31.525000
16.855001	0.402976	31.888000
16.879589	0.399918	31.935000
16.904558	0.398413	31.980000
16.930413	0.396325	32.027000
16.955315	0.391758	32.073000
16.980647	0.390924	32.120000
17.005722	0.388235	32.166000
17.030814	0.388525	32.213000
17.056400	0.386646	32.259000
17.081323	0.384942	32.306000
17.106539	0.384662	32.352000
17.130997	0.383517	32.399000
17.156128	0.385022	32.445000
17.355091	0.386980	32.491000
17.380377	0.409824	32.858000
17.405923	0.412123	32.905000
17.430502	0.413137	32.951000
17.456107	0.415485	32.997000
17.481270	0.415864	33.044000
17.505905	0.416289	33.090000
17.530166	0.417233	33.136000
17.555051	0.418193	33.181000
17.580228	0.418193	33.227000
17.605404	0.417374	33.274000
17.630886	0.418073	33.320000
17.656165	0.415305	33.367000
17.680969	0.414421	33.412000
17.706250	0.413780	33.458000
17.730428	0.411702	33.505000
17.824026	0.410317	33.551000
17.907032	0.396884	33.725000
17.932205	0.394870	33.877000
17.956957	0.393122	33.923000
17.981552	0.394026	33.969000
18.006079	0.393132	34.015000
18.030941	0.393122	34.061000
18.056911	0.393926	34.108000
18.082071	0.392832	34.154000
18.107574	0.393766	34.200000
18.132559	0.392902	34.246000
18.157714	0.393122	34.292000
18.182954	0.391908	34.339000
18.207032	0.392397	34.385000
18.231633	0.391578	34.431000
18.256783	0.389669	34.477000
18.282340	0.387730	34.524000
18.306831	0.382892	34.570000
18.332930	0.380593	34.616000
18.420381	0.374232	34.663000
18.502288	0.322677	34.825000
18.527227	0.312306	34.977000
18.552093	0.299538	35.023000
18.577454	0.286595	35.069000
18.602241	0.273342	35.115000
18.627807	0.259149	35.161000
18.652732	0.245545	35.208000
18.678065	0.232883	35.254000
18.703280	0.221232	35.301000
18.728716	0.206618	35.347000
18.753583	0.194667	35.393000
18.778019	0.180744	35.440000
18.803117	0.164023	35.486000
18.828493	0.148654	35.533000
18.853616	0.132152	35.579000
18.878901	0.116172	35.625000
18.903810	0.100017	35.671000
18.929125	0.085824	35.718000
19.016621	0.070875	35.764000
19.098215	-0.006664	35.924000
19.123415	-0.016448	36.077000
19.148363	-0.028782	36.123000
19.173315	-0.038690	36.169000
19.198807	-0.048395	36.215000
19.224243	-0.056675	36.262000
19.249007	-0.064136	36.309000
19.274902	-0.074170	36.356000
19.299159	-0.083060	36.402000
19.323848	-0.093365	36.449000
19.349597	-0.102439	36.494000
19.374518	-0.110799	36.541000
19.399762	-0.121549	36.588000
19.425106	-0.129379	36.634000
19.450653	-0.139689	36.680000
19.475456	-0.146785	36.727000
19.500767	-0.155684	36.773000
19.525984	-0.163444	36.819000
19.611862	-0.173091	36.866000
19.808618	-0.251425	37.025000
19.833583	-0.254934	37.390000
19.859102	-0.258883	37.436000
19.883889	-0.261175	37.481000
19.909394	-0.265243	37.528000
19.934947	-0.268351	37.574000
19.959546	-0.271334	37.621000
19.984942	-0.274887	37.667000
20.009304	-0.276483	37.714000
20.034565	-0.279366	37.760000
20.059565	-0.280262	37.806000
20.084289	-0.280858	37.851000
20.110059	-0.282745	37.898000
20.134810	-0.284026	37.944000
20.333550	-0.285122	37.991000
20.358717	-0.285496	38.357000
20.383704	-0.285937	38.404000
20.408460	-0.286017	38.450000
20.432751	-0.284571	38.496000
20.458005	-0.284661	38.542000
20.482907	-0.283455	38.588000
20.508708	-0.283385	38.634000
20.533587	-0.284931	38.681000
20.558708	-0.284206	38.727000
20.584067	-0.284791	38.773000
20.609167	-0.283946	38.819000
20.633752	-0.283926	38.866000
20.658191	-0.283184	38.911000
20.683164	-0.282584	38.958000
20.708608	-0.282293	39.004000
20.803280	-0.280162	39.051000
20.885787	-0.267960	39.225000
20.910216	-0.261415	39.377000
20.935161	-0.257517	39.423000
20.960695	-0.253043	39.470000
20.985745	-0.249064	39.515000
21.010846	-0.246396	39.562000
21.036290	-0.241252	39.608000
21.061277	-0.240526	39.654000
21.085996	-0.240305	39.700000
21.110991	-0.240576	39.747000
21.135372	-0.238134	39.793000
21.160660	-0.235441	39.839000
21.185851	-0.234886	39.885000
21.210722	-0.233339	39.931000
21.235749	-0.233479	39.978000
21.261127	-0.231328	40.024000
21.286391	-0.230082	40.070000
21.311658	-0.227914	40.117000
21.399785	-0.225347	40.163000
21.480623	-0.220827	40.325000
21.505945	-0.217799	40.477000
21.531379	-0.216674	40.523000
21.556041	-0.212955	40.569000
21.581745	-0.209096	40.615000
21.606439	-0.205828	40.661000
21.630761	-0.198267	40.707000
21.655744	-0.192671	40.753000
21.680890	-0.186055	40.800000
21.705967	-0.179417	40.846000
21.731305	-0.172560	40.893000
21.757043	-0.165188	40.940000
21.782052	-0.158408	40.986000
21.807807	-0.149321	41.033000
21.832792	-0.142876	41.079000
21.857855	-0.133522	41.126000
21.882054	-0.124901	41.171000
