Sample	2mm tape 
date	08/01/2025
	
Temperature (K)	77.00
Angle (deg.)	0.000000
field / T	0.450000
	
		
Approx. trace time (s)	120.0	
		
Current / A	V1  -sample/ uV	time/s
-0.018843	2.035958	0.000000
-0.018082	2.033201	0.046000
-0.018112	2.033171	0.092000
-0.017958	2.034580	0.138000
-0.018769	2.027190	0.183000
-0.017946	2.033475	0.230000
-0.018824	2.034398	0.275000
-0.018168	2.037063	0.322000
-0.019003	2.041065	0.368000
-0.018116	2.041156	0.414000
-0.018540	2.045597	0.573000
-0.016914	2.054409	0.619000
0.014746	2.049625	0.791000
0.039088	2.057751	0.838000
0.065356	2.064786	0.883000
0.089492	2.054248	0.929000
0.115718	2.062995	0.975000
0.140986	2.066907	1.022000
0.165738	2.070954	1.068000
0.191845	2.075466	1.115000
0.215348	2.082280	1.161000
0.240514	2.083254	1.207000
0.264853	2.090017	1.253000
0.289854	2.097336	1.299000
0.314939	2.099758	1.346000
0.340294	2.107027	1.391000
0.365472	2.113058	1.437000
0.391390	2.113210	1.484000
0.473212	2.111356	1.530000
0.499318	2.116748	1.685000
0.585179	2.138504	1.731000
0.610198	2.147242	1.891000
0.635502	2.155554	1.936000
0.661082	2.165618	1.983000
0.686414	2.168339	2.029000
0.711538	2.169156	2.075000
0.736274	2.166713	2.121000
0.760293	2.173366	2.168000
0.785632	2.181992	2.214000
0.810872	2.186998	2.261000
0.835638	2.193374	2.307000
0.860920	2.199070	2.352000
0.885668	2.190684	2.397000
0.910245	2.208042	2.444000
0.934495	2.212055	2.488000
0.958632	2.222519	2.534000
0.984277	2.224520	2.581000
1.182800	2.219789	2.626000
1.208469	2.277822	2.993000
1.233630	2.282174	3.040000
1.258466	2.283302	3.086000
1.283828	2.286583	3.133000
1.308181	2.288175	3.178000
1.332698	2.291212	3.224000
1.357502	2.297151	3.271000
1.382702	2.300266	3.317000
1.407795	2.301837	3.363000
1.433410	2.308353	3.409000
1.459080	2.313706	3.456000
1.484002	2.308752	3.503000
1.509985	2.315005	3.549000
1.534280	2.318326	3.595000
1.558242	2.322536	3.641000
1.582881	2.321778	3.687000
1.667152	2.329360	3.733000
1.692336	2.358071	3.888000
1.892121	2.396041	3.933000
1.917670	2.399605	4.304000
1.942885	2.407565	4.350000
1.967782	2.418131	4.396000
1.992881	2.419378	4.442000
2.017453	2.424203	4.488000
2.042441	2.435902	4.534000
2.067536	2.444488	4.581000
2.092685	2.439925	4.627000
2.118045	2.439723	4.672000
2.142844	2.444558	4.720000
2.167769	2.451170	4.765000
2.255520	2.462188	4.812000
2.280736	2.482715	4.974000
2.373484	2.508081	5.019000
2.397944	2.512997	5.191000
2.422716	2.526322	5.237000
2.448298	2.527028	5.284000
2.473238	2.544709	5.330000
2.497859	2.546465	5.375000
2.523590	2.546354	5.422000
2.548719	2.559683	5.469000
2.574077	2.560880	5.515000
2.598384	2.561965	5.561000
2.623770	2.572730	5.607000
2.647791	2.572791	5.653000
2.673401	2.587024	5.699000
2.698466	2.586111	5.746000
2.724063	2.579086	5.792000
2.749653	2.602322	5.838000
2.774378	2.603963	5.885000
2.857112	2.607959	5.930000
2.882197	2.608424	6.085000
2.968948	2.611280	6.132000
2.994226	2.610543	6.292000
3.018797	2.613310	6.338000
3.044392	2.617690	6.384000
3.069038	2.622830	6.430000
3.094573	2.621652	6.475000
3.119402	2.613391	6.522000
3.144059	2.607198	6.568000
3.169027	2.599818	6.615000
3.193918	2.605992	6.662000
3.219105	2.594655	6.707000
3.244621	2.588261	6.754000
3.269972	2.596098	6.800000
3.294341	2.591283	6.846000
3.319833	2.587917	6.891000
3.343807	2.594161	6.938000
3.368918	2.591576	6.984000
3.453335	2.583324	7.031000
3.478055	2.574573	7.185000
3.564866	2.550518	7.232000
3.589919	2.547459	7.391000
3.614942	2.544467	7.437000
3.640274	2.538698	7.483000
3.664703	2.525702	7.530000
3.689329	2.533216	7.575000
3.713852	2.525702	7.622000
3.739468	2.518504	7.668000
3.764382	2.516254	7.713000
3.789893	2.517640	7.760000
3.815189	2.503151	7.807000
3.840043	2.508429	7.853000
3.865396	2.503392	7.899000
3.889635	2.491890	7.946000
3.914261	2.495160	7.991000
3.939550	2.484203	8.038000
3.964701	2.480573	8.084000
4.164046	2.473428	8.130000
4.189192	2.430925	8.498000
4.214644	2.428998	8.544000
4.239865	2.421730	8.591000
4.265087	2.425490	8.637000
4.290457	2.418161	8.684000
4.315500	2.411874	8.731000
4.339150	2.410180	8.776000
4.364492	2.406092	8.823000
4.389780	2.398478	8.869000
4.414701	2.399352	8.915000
4.439908	2.392680	8.961000
4.465177	2.393454	9.007000
4.490666	2.391017	9.054000
4.515679	2.380999	9.100000
4.539957	2.374923	9.146000
4.564607	2.380518	9.192000
4.648825	2.372112	9.238000
4.673825	2.364318	9.392000
4.872771	2.346511	9.439000
4.897931	2.347289	9.806000
4.922985	2.346334	9.853000
4.947727	2.347668	9.898000
4.971834	2.339025	9.944000
4.996851	2.339166	9.991000
5.022326	2.337200	10.037000
5.047314	2.331523	10.082000
5.072229	2.331827	10.128000
5.097666	2.327237	10.174000
5.122892	2.328324	10.221000
5.147906	2.324153	10.267000
5.234210	2.329289	10.313000
5.258988	2.322638	10.474000
5.351304	2.313715	10.520000
5.376800	2.319190	10.691000
5.402451	2.323279	10.738000
5.427155	2.324993	10.784000
5.452357	2.323664	10.829000
5.477246	2.331796	10.875000
5.502052	2.337392	10.922000
5.526365	2.338377	10.968000
5.551630	2.339686	11.014000
5.576563	2.333929	11.060000
5.601649	2.332620	11.106000
5.627020	2.329653	11.153000
5.652517	2.335562	11.200000
5.677522	2.336426	11.246000
5.702449	2.328445	11.291000
5.726764	2.337230	11.338000
5.751987	2.340091	11.384000
5.836311	2.338316	11.430000
5.861220	2.350377	11.586000
5.947437	2.360143	11.632000
5.973252	2.361861	11.791000
5.997823	2.356418	11.837000
6.023511	2.371769	11.884000
6.047180	2.370267	11.930000
6.072255	2.370682	11.976000
6.097439	2.377323	12.022000
6.122670	2.384359	12.069000
6.147769	2.383839	12.115000
6.173227	2.388348	12.162000
6.198428	2.389536	12.207000
6.223649	2.381130	12.254000
6.248617	2.389839	12.299000
6.272980	2.399999	12.346000
6.297497	2.400029	12.392000
6.322324	2.398943	12.437000
6.347756	2.402882	12.484000
6.432088	2.402493	12.530000
6.457020	2.410888	12.685000
6.543903	2.412928	12.730000
6.569247	2.415900	12.892000
6.593364	2.414357	12.938000
6.618352	2.430975	12.984000
6.643154	2.426190	13.031000
6.668337	2.426666	13.077000
6.693656	2.429078	13.123000
6.718540	2.421952	13.169000
6.744017	2.421280	13.214000
6.769020	2.421901	13.261000
6.794268	2.423026	13.307000
6.818220	2.417510	13.353000
6.843497	2.414648	13.400000
6.868418	2.417681	13.446000
6.894367	2.414336	13.493000
6.919225	2.417379	13.539000
6.943882	2.418221	13.584000
7.143280	2.421300	13.631000
7.168333	2.404088	13.998000
7.193348	2.402353	14.045000
7.217813	2.392215	14.090000
7.242330	2.394934	14.137000
7.267788	2.398993	14.183000
7.292523	2.388368	14.229000
7.317783	2.381716	14.275000
7.343090	2.380539	14.322000
7.368097	2.378997	14.367000
7.393077	2.380579	14.413000
7.418102	2.376924	14.459000
7.442537	2.376146	14.506000
7.467005	2.374498	14.552000
7.493100	2.374477	14.598000
7.518203	2.360744	14.644000
7.543178	2.372966	14.691000
7.627096	2.381939	14.736000
7.651688	2.367962	14.890000
7.850688	2.354689	14.936000
7.875443	2.367118	15.305000
7.900486	2.373562	15.350000
7.925493	2.368953	15.397000
7.950914	2.377971	15.442000
7.976293	2.376711	15.489000
8.000681	2.385608	15.535000
8.026147	2.388661	15.582000
8.051039	2.395363	15.628000
8.075824	2.399422	15.674000
8.100168	2.407828	15.720000
8.125034	2.409985	15.765000
8.212686	2.414175	15.810000
8.237795	2.417329	15.974000
8.331247	2.448085	16.019000
8.356370	2.449049	16.192000
8.381721	2.456155	16.238000
8.406858	2.449160	16.284000
8.430580	2.458219	16.329000
8.455458	2.464579	16.376000
8.480272	2.467194	16.422000
8.504997	2.466648	16.467000
8.530216	2.469445	16.513000
8.555642	2.470287	16.558000
8.580556	2.473537	16.605000
8.605932	2.471483	16.652000
8.630552	2.475325	16.698000
8.654963	2.475628	16.745000
8.680341	2.479806	16.790000
8.705082	2.480402	16.837000
8.730358	2.481890	16.882000
8.814382	2.481164	16.929000
8.840114	2.484102	17.084000
8.927039	2.487478	17.131000
8.952398	2.481890	17.292000
8.976548	2.487236	17.338000
9.001381	2.486564	17.384000
9.026964	2.491308	17.431000
9.051890	2.485509	17.476000
9.077304	2.482390	17.523000
9.102360	2.488845	17.569000
9.127465	2.487327	17.615000
9.152655	2.490023	17.661000
9.177560	2.491480	17.707000
9.202398	2.491677	17.754000
9.227209	2.495427	17.801000
9.252655	2.497971	17.847000
9.277582	2.498924	17.893000
9.303408	2.506873	17.940000
9.328399	2.507414	17.986000
9.412202	2.516111	18.032000
9.436961	2.529859	18.186000
9.522405	2.540362	18.232000
9.547582	2.542307	18.391000
9.572560	2.548776	18.438000
9.597585	2.550245	18.483000
9.623158	2.553854	18.530000
9.647961	2.557321	18.576000
9.673454	2.556095	18.623000
9.698246	2.559042	18.669000
9.722932	2.553111	18.714000
9.747215	2.559032	18.761000
9.772479	2.560390	18.807000
9.797673	2.557584	18.853000
9.823152	2.559673	18.900000
9.848639	2.563877	18.947000
9.873541	2.560258	18.993000
9.898929	2.552405	19.039000
9.923578	2.558517	19.085000
10.123026	2.558851	19.132000
10.147959	2.545066	19.499000
10.172518	2.535109	19.546000
10.197844	2.528274	19.592000
10.222457	2.526372	19.638000
10.248136	2.525317	19.685000
10.273474	2.522793	19.731000
10.298534	2.520996	19.778000
10.323760	2.516433	19.823000
10.349084	2.506613	19.870000
10.373618	2.508050	19.916000
10.397783	2.497471	19.962000
10.422411	2.497800	20.008000
10.447543	2.495468	20.054000
10.472768	2.495008	20.100000
10.498283	2.488382	20.147000
10.523337	2.489578	20.193000
10.606597	2.479796	20.239000
10.631305	2.465574	20.393000
10.830556	2.451673	20.439000
10.855129	2.447771	20.806000
10.880178	2.446166	20.852000
10.905762	2.447862	20.899000
10.930665	2.442426	20.945000
10.955914	2.444345	20.991000
10.981261	2.449068	21.038000
11.005716	2.442568	21.083000
11.030397	2.446146	21.129000
11.055274	2.441861	21.175000
11.080592	2.447579	21.222000
11.105787	2.442296	21.269000
11.191782	2.451208	21.315000
11.216876	2.467465	21.474000
11.310284	2.446606	21.520000
11.334577	2.473094	21.691000
11.359907	2.489800	21.738000
11.384757	2.493095	21.785000
11.409366	2.488745	21.831000
11.434708	2.499904	21.877000
11.460009	2.494433	21.922000
11.485338	2.505758	21.969000
11.510303	2.507870	22.015000
11.535087	2.517457	22.061000
11.559259	2.520380	22.107000
11.584107	2.522844	22.153000
11.609549	2.529249	22.199000
11.634685	2.538050	22.246000
11.660177	2.534234	22.292000
11.685234	2.533387	22.338000
11.710806	2.535230	22.385000
11.793642	2.533256	22.431000
11.818531	2.535048	22.586000
11.905147	2.551945	22.633000
11.930266	2.547822	22.791000
11.955296	2.544325	22.838000
11.980586	2.542875	22.885000
12.006136	2.543991	22.931000
12.031190	2.538979	22.977000
12.056059	2.542345	23.022000
12.081312	2.539762	23.069000
12.106022	2.541477	23.116000
12.130586	2.533008	23.162000
12.155365	2.532029	23.207000
12.180679	2.530525	23.253000
12.205618	2.523736	23.300000
12.231151	2.533953	23.346000
12.256416	2.524605	23.392000
12.281318	2.524685	23.439000
12.306231	2.527315	23.485000
12.389451	2.523167	23.531000
12.414365	2.515990	23.686000
12.500390	2.507414	23.731000
12.526258	2.513234	23.891000
12.551685	2.508884	23.938000
12.576716	2.507314	23.983000
12.602051	2.515697	24.030000
12.627352	2.509144	24.076000
12.652414	2.511448	24.124000
12.676666	2.510231	24.170000
12.701299	2.504653	24.216000
12.726722	2.504461	24.262000
12.751637	2.502736	24.308000
12.776642	2.506178	24.354000
12.802164	2.508388	24.400000
12.827311	2.502483	24.446000
12.851882	2.503962	24.493000
12.877035	2.499248	24.539000
12.901698	2.507435	24.586000
13.100486	2.505270	24.632000
13.125800	2.505860	24.998000
13.150508	2.511124	25.045000
13.175848	2.510584	25.090000
13.200996	2.520512	25.137000
13.226450	2.521839	25.183000
13.250879	2.526281	25.229000
13.275304	2.528886	25.276000
13.300400	2.528294	25.321000
13.325150	2.526886	25.368000
13.350835	2.525791	25.414000
13.375914	2.524767	25.460000
13.401199	2.530284	25.507000
13.426396	2.517927	25.553000
13.451666	2.536325	25.599000
13.476599	2.539398	25.645000
13.500743	2.537844	25.690000
13.584561	2.538728	25.738000
13.609293	2.529829	25.892000
13.808914	2.516172	25.938000
13.834275	2.514925	26.306000
13.859309	2.509938	26.353000
13.884487	2.494747	26.399000
13.909097	2.501490	26.445000
13.933249	2.491718	26.490000
13.958440	2.497618	26.536000
13.983203	2.491501	26.582000
14.008608	2.484344	26.627000
14.033637	2.488856	26.674000
14.058654	2.480322	26.721000
14.083873	2.486686	26.767000
14.170828	2.485026	26.813000
14.195901	2.472070	26.974000
14.287961	2.468248	27.019000
14.313145	2.467193	27.191000
14.338710	2.463034	27.238000
14.363940	2.466099	27.285000
14.388742	2.462368	27.331000
14.414381	2.457492	27.377000
14.439438	2.449048	27.423000
14.464635	2.452333	27.470000
14.488739	2.448967	27.516000
14.513202	2.445480	27.561000
14.538222	2.452046	27.607000
14.563301	2.450012	27.653000
14.588926	2.448680	27.700000
14.614116	2.446828	27.746000
14.639378	2.448216	27.792000
14.664452	2.449372	27.838000
14.689207	2.447670	27.885000
14.772152	2.448287	27.930000
14.797733	2.438040	28.086000
14.884146	2.434002	28.132000
14.909072	2.430585	28.291000
14.934391	2.425600	28.338000
14.959810	2.430334	28.384000
14.985037	2.430737	28.431000
15.010748	2.430010	28.477000
15.034907	2.426442	28.523000
15.059953	2.425570	28.570000
15.084784	2.426887	28.616000
15.110646	2.420583	28.662000
15.135375	2.426654	28.707000
15.160639	2.423827	28.754000
15.185480	2.434275	28.799000
15.210752	2.434815	28.846000
15.235415	2.437228	28.892000
15.260145	2.435228	28.939000
15.285207	2.435592	28.985000
15.369838	2.431328	29.032000
15.395015	2.419680	29.187000
15.481085	2.417075	29.233000
15.505920	2.414377	29.392000
15.530415	2.419367	29.437000
15.555065	2.419387	29.483000
15.580028	2.418160	29.529000
15.604807	2.413881	29.575000
15.630069	2.417710	29.622000
15.655375	2.425398	29.668000
15.680577	2.413983	29.714000
15.705982	2.428532	29.761000
15.731224	2.434401	29.807000
15.756193	2.426624	29.853000
15.780223	2.430454	29.899000
15.804617	2.435992	29.944000
15.829850	2.445994	29.990000
15.854453	2.442557	30.036000
15.879439	2.446318	30.081000
16.078412	2.442044	30.128000
16.103858	2.439844	30.495000
16.127976	2.442094	30.541000
16.152467	2.443392	30.586000
16.177238	2.434937	30.633000
16.202528	2.430304	30.679000
16.227799	2.429491	30.724000
16.252868	2.429319	30.771000
16.278260	2.435593	30.818000
16.303765	2.445102	30.864000
16.328984	2.440146	30.909000
16.354015	2.436113	30.957000
16.377857	2.426291	31.003000
16.402796	2.426807	31.049000
16.427832	2.422813	31.095000
16.453414	2.430051	31.140000
16.478189	2.426554	31.187000
16.562314	2.433306	31.234000
16.587177	2.424262	31.388000
16.787183	2.431398	31.434000
16.812203	2.433781	31.803000
16.837005	2.431862	31.851000
16.861717	2.433962	31.897000
16.887383	2.435369	31.943000
16.912287	2.432034	31.989000
16.937758	2.431580	32.035000
16.962581	2.434896	32.081000
16.987687	2.435179	32.127000
17.012307	2.434855	32.173000
17.036951	2.432715	32.219000
17.062115	2.432453	32.266000
17.149230	2.438505	32.313000
17.174620	2.448906	32.474000
17.267920	2.450528	32.520000
17.293018	2.452506	32.691000
17.318264	2.453580	32.737000
17.342945	2.455212	32.783000
17.367707	2.458036	32.829000
17.392621	2.453732	32.875000
17.417179	2.455892	32.921000
17.442258	2.461243	32.968000
17.467953	2.459101	33.014000
17.492402	2.462571	33.060000
17.518015	2.463079	33.106000
17.543078	2.462943	33.153000
17.567976	2.458932	33.198000
17.592792	2.463090	33.245000
17.616830	2.462338	33.290000
17.642270	2.462851	33.336000
17.667004	2.459663	33.383000
17.751847	2.461534	33.430000
17.777302	2.457321	33.585000
17.864464	2.454817	33.631000
17.888924	2.457955	33.792000
17.913857	2.455796	33.837000
17.938023	2.454177	33.884000
17.962987	2.453383	33.930000
17.987998	2.453292	33.975000
18.013517	2.457806	34.022000
18.038719	2.452950	34.068000
18.063442	2.449673	34.114000
18.088840	2.447493	34.160000
18.113805	2.453454	34.206000
18.138765	2.449392	34.253000
18.163390	2.454670	34.299000
18.188058	2.447680	34.345000
18.212866	2.448236	34.391000
18.238302	2.459384	34.437000
18.263917	2.460128	34.484000
18.347851	2.457503	34.530000
18.372190	2.452869	34.684000
18.459958	2.446970	34.730000
18.484372	2.448599	34.891000
18.509342	2.444527	34.938000
18.534338	2.447974	34.985000
18.559505	2.452860	35.030000
18.584328	2.449856	35.076000
18.609463	2.444001	35.122000
18.634407	2.444980	35.168000
18.659327	2.444203	35.213000
18.684167	2.441059	35.260000
18.708751	2.437803	35.306000
18.733920	2.439742	35.353000
18.758557	2.440145	35.399000
18.783885	2.441740	35.445000
18.808795	2.447000	35.490000
18.834218	2.445984	35.536000
18.859377	2.441291	35.583000
19.057606	2.438817	35.629000
19.081431	2.442053	35.995000
19.106932	2.439060	36.041000
19.131767	2.436996	36.088000
19.157507	2.433791	36.134000
19.182341	2.433286	36.179000
19.207086	2.426382	36.226000
19.232201	2.414506	36.271000
19.257019	2.424973	36.318000
19.281990	2.431792	36.364000
19.306297	2.428430	36.410000
19.331666	2.431450	36.457000
19.356883	2.436854	36.503000
19.381850	2.430263	36.549000
19.407348	2.446288	36.594000
19.432217	2.445051	36.641000
19.457770	2.446676	36.688000
19.540492	2.454736	36.733000
19.565800	2.460118	36.889000
19.765266	2.517266	36.935000
19.790266	2.523685	37.304000
19.816034	2.526492	37.351000
19.841436	2.528884	37.397000
19.866786	2.532895	37.443000
19.891985	2.538947	37.490000
19.917324	2.542743	37.536000
19.942224	2.546013	37.583000
19.966690	2.549592	37.629000
19.991236	2.547669	37.674000
20.016117	2.560087	37.721000
20.041822	2.561933	37.767000
20.128119	2.574036	37.814000
20.153859	2.582690	37.974000
20.247121	2.604652	38.021000
20.272282	2.614131	38.192000
20.297393	2.609690	38.238000
20.322000	2.619848	38.285000
20.346143	2.620847	38.331000
20.371483	2.624209	38.377000
20.397165	2.626200	38.423000
20.422146	2.628243	38.469000
20.447177	2.633914	38.515000
20.472398	2.635531	38.562000
20.497482	2.640080	38.608000
20.521810	2.641855	38.654000
20.545990	2.649002	38.700000
20.571272	2.651316	38.746000
20.596328	2.656049	38.791000
20.621122	2.662230	38.837000
20.646313	2.664768	38.883000
20.730283	2.661472	38.929000
20.755164	2.673987	39.084000
20.842748	2.667174	39.130000
20.867183	2.670201	39.292000
20.891845	2.673431	39.338000
20.917529	2.676974	39.383000
20.930844	2.681499	39.430000
20.967629	2.681357	39.476000
20.992708	2.672668	39.523000
21.017794	2.677207	39.569000
21.043288	2.681554	39.615000
21.068338	2.680629	39.662000
21.092750	2.683369	39.708000
21.117314	2.679143	39.754000
21.142381	2.678375	39.800000
21.167908	2.677672	39.847000
21.192894	2.677166	39.893000
21.218211	2.666193	39.938000
21.242906	2.673967	39.985000
21.326028	2.670424	40.031000
21.350747	2.678982	40.185000
21.437599	2.679421	40.231000
21.462789	2.683970	40.391000
21.487457	2.686189	40.437000
21.512751	2.683137	40.483000
21.537736	2.682944	40.529000
21.562375	2.677551	40.574000
21.586622	2.678273	40.620000
21.611412	2.679472	40.667000
21.636981	2.671663	40.713000
21.661616	2.672799	40.758000
21.686879	2.675696	40.804000
21.712154	2.679340	40.850000
21.737440	2.677814	40.897000
21.762041	2.684506	40.943000
21.786363	2.677723	40.989000
21.810900	2.672577	41.035000
21.835848	2.679967	41.080000
22.034742	2.678152	41.127000
22.059742	2.670191	41.494000
22.084682	2.666475	41.539000
22.109523	2.667836	41.585000
22.134928	2.670464	41.631000
22.159285	2.669357	41.677000
22.183227	2.665156	41.723000
22.208386	2.670771	41.769000
22.233390	2.669887	41.814000
22.258676	2.670802	41.860000
22.283830	2.668689	41.906000
22.308776	2.673592	41.952000
