Sample	2mm tape 
date	07/01/2025
	
Temperature (K)	77.00
Angle (deg.)	90.000000
field / T	0.000000
	
		
Approx. trace time (s)	120.0	
		
Current / A	V1  -sample/ uV	time/s
-0.018432	-0.636975	0.000000
-0.018726	-0.629838	0.058000
-0.019095	-0.623372	0.103000
-0.018438	-0.616731	0.149000
-0.019271	-0.610098	0.195000
-0.018346	-0.604307	0.242000
-0.018315	-0.596941	0.288000
-0.018174	-0.591648	0.335000
-0.018646	-0.583903	0.380000
-0.018278	-0.576552	0.428000
-0.019327	-0.571830	0.474000
-0.018487	-0.566637	0.520000
-0.019370	-0.562261	0.565000
-0.018432	-0.557183	0.612000
-0.019290	-0.551191	0.657000
-0.018358	-0.545340	0.703000
-0.014448	-0.538899	0.749000
0.017230	-0.529924	0.797000
0.099824	-0.518701	0.842000
0.302253	-0.448981	0.997000
0.327671	-0.447907	1.369000
0.351758	-0.446452	1.415000
0.376587	-0.444414	1.460000
0.402729	-0.442531	1.507000
0.427828	-0.440392	1.554000
0.452773	-0.440412	1.599000
0.477580	-0.438913	1.646000
0.502900	-0.438712	1.693000
0.527833	-0.438702	1.738000
0.552437	-0.437914	1.785000
0.577346	-0.436629	1.832000
0.602504	-0.435903	1.877000
0.810275	-0.436113	1.924000
0.835648	-0.406666	2.307000
0.860630	-0.399711	2.353000
0.885470	-0.392473	2.399000
0.910520	-0.383910	2.445000
0.936302	-0.376739	2.492000
0.960867	-0.368802	2.539000
0.985287	-0.360114	2.585000
1.010478	-0.350105	2.631000
1.035449	-0.341572	2.677000
1.060911	-0.332744	2.724000
1.086419	-0.324812	2.770000
1.111088	-0.314603	2.816000
1.136192	-0.305244	2.862000
1.161988	-0.294300	2.908000
1.186691	-0.282664	2.955000
1.211754	-0.273015	3.002000
1.295480	-0.261745	3.048000
1.379681	-0.212180	3.203000
1.405324	-0.204268	3.358000
1.429617	-0.194094	3.404000
1.454601	-0.186436	3.449000
1.478718	-0.179669	3.495000
1.503978	-0.175131	3.543000
1.529434	-0.169793	3.589000
1.555181	-0.166480	3.636000
1.580127	-0.164092	3.682000
1.605109	-0.163823	3.728000
1.630916	-0.164332	3.775000
1.655799	-0.165017	3.821000
1.680344	-0.167041	3.866000
1.704241	-0.167514	3.913000
1.729328	-0.168869	3.959000
1.754693	-0.167865	4.005000
1.779859	-0.169724	4.051000
1.805832	-0.169480	4.098000
1.889782	-0.170919	4.144000
1.975557	-0.180273	4.300000
1.999516	-0.181898	4.457000
2.024726	-0.184521	4.504000
2.049604	-0.186136	4.550000
2.074727	-0.188488	4.596000
2.100028	-0.187663	4.642000
2.125585	-0.187363	4.688000
2.150799	-0.187353	4.735000
2.175965	-0.185816	4.781000
2.201055	-0.183217	4.828000
2.225939	-0.183307	4.874000
2.250530	-0.181048	4.921000
2.275845	-0.179139	4.967000
2.300239	-0.176430	5.013000
2.325871	-0.174861	5.059000
2.350885	-0.172003	5.105000
2.376686	-0.168085	5.152000
2.401846	-0.166111	5.198000
2.484171	-0.162244	5.245000
2.570591	-0.158601	5.398000
2.595811	-0.159675	5.558000
2.621277	-0.158671	5.605000
2.646185	-0.160060	5.651000
2.672006	-0.159795	5.697000
2.697058	-0.161743	5.743000
2.722225	-0.162334	5.790000
2.747092	-0.164202	5.836000
2.771825	-0.167121	5.882000
2.796709	-0.169219	5.929000
2.821220	-0.171638	5.975000
2.846797	-0.173737	6.022000
2.871754	-0.176710	6.067000
2.896679	-0.181049	6.113000
2.922513	-0.179529	6.160000
2.947294	-0.180844	6.206000
2.972639	-0.180283	6.252000
2.997249	-0.180043	6.299000
3.080895	-0.178365	6.345000
3.280954	-0.135728	6.499000
3.305808	-0.131571	6.870000
3.331630	-0.127259	6.915000
3.356683	-0.122107	6.963000
3.382132	-0.120552	7.009000
3.407536	-0.117624	7.056000
3.432695	-0.112062	7.102000
3.457614	-0.108330	7.148000
3.482604	-0.102797	7.195000
3.507624	-0.095048	7.241000
3.532246	-0.088765	7.288000
3.557970	-0.081076	7.334000
3.582920	-0.074990	7.381000
3.789066	-0.070302	7.427000
3.814196	-0.040005	7.807000
3.839155	-0.036168	7.852000
3.863945	-0.032194	7.898000
3.888205	-0.026973	7.945000
3.913682	-0.023844	7.991000
3.938566	-0.021675	8.038000
3.963981	-0.019627	8.084000
3.989255	-0.019287	8.129000
4.014668	-0.019767	8.177000
4.039970	-0.017098	8.223000
4.065180	-0.014539	8.270000
4.090105	-0.013285	8.316000
4.114574	-0.013736	8.362000
4.139238	-0.013625	8.409000
4.164904	-0.064736	8.455000
4.189992	-0.017723	8.502000
4.274550	-0.015475	8.549000
4.358203	-0.019377	8.704000
4.383278	-0.018978	8.858000
4.407989	-0.020082	8.904000
4.433260	-0.021916	8.951000
4.458671	-0.023745	8.997000
4.483161	-0.027617	9.043000
4.509008	-0.030821	9.090000
4.534188	-0.035228	9.136000
4.559833	-0.038711	9.182000
4.584492	-0.043707	9.229000
4.609862	-0.046115	9.275000
4.634287	-0.050089	9.322000
4.659090	-0.053712	9.368000
4.684134	-0.056654	9.414000
4.709604	-0.061572	9.461000
4.735071	-0.065980	9.507000
4.759833	-0.072761	9.553000
4.785209	-0.081276	9.599000
4.868784	-0.088297	9.646000
4.953107	-0.150000	9.801000
4.978688	-0.162568	9.958000
5.003876	-0.174440	10.004000
5.029486	-0.186517	10.050000
5.054003	-0.199404	10.096000
5.079329	-0.213596	10.142000
5.104615	-0.228544	10.189000
5.128741	-0.245270	10.235000
5.153784	-0.265603	10.281000
5.178380	-0.286692	10.328000
5.204127	-0.309828	10.374000
5.229464	-0.332234	10.421000
5.254499	-0.356626	10.467000
5.280046	-0.381667	10.513000
5.305436	-0.406377	10.560000
5.330541	-0.432152	10.606000
5.354935	-0.457202	10.652000
5.379946	-0.483327	10.698000
5.463838	-0.509546	10.745000
5.549804	-0.629573	10.900000
5.574405	-0.647104	11.057000
5.599495	-0.662523	11.104000
5.624482	-0.678747	11.149000
5.648863	-0.695948	11.195000
5.673490	-0.712132	11.242000
5.698275	-0.726611	11.288000
5.723552	-0.740953	11.333000
5.749085	-0.754656	11.379000
5.774196	-0.767197	11.426000
5.799284	-0.776911	11.472000
5.823820	-0.787475	11.518000
5.849164	-0.793656	11.564000
5.873435	-0.798951	11.610000
5.898127	-0.804811	11.657000
5.923035	-0.809295	11.702000
5.948153	-0.815155	11.748000
5.973366	-0.820815	11.794000
6.057711	-0.826233	11.841000
6.260369	-0.838399	11.996000
6.285769	-0.835568	12.370000
6.310844	-0.832065	12.417000
6.336239	-0.827572	12.463000
6.361117	-0.822562	12.509000
6.385710	-0.820470	12.555000
6.411029	-0.816121	12.602000
6.435667	-0.812352	12.648000
6.460649	-0.809665	12.694000
6.485966	-0.805706	12.740000
6.511126	-0.801272	12.787000
6.536090	-0.796548	12.833000
6.561681	-0.790067	12.879000
6.767956	-0.782891	12.926000
6.792560	-0.693100	13.307000
6.817389	-0.680348	13.353000
6.842526	-0.667037	13.400000
6.867332	-0.653930	13.446000
6.892805	-0.641508	13.492000
6.917903	-0.627081	13.538000
6.943557	-0.615190	13.585000
6.969196	-0.602517	13.632000
6.993349	-0.591538	13.677000
7.018666	-0.579565	13.723000
7.043108	-0.565693	13.770000
7.068099	-0.553292	13.815000
7.093131	-0.540104	13.862000
7.118745	-0.527347	13.909000
7.143888	-0.515564	13.955000
7.169449	-0.502346	14.002000
7.253703	-0.489942	14.048000
7.336099	-0.414388	14.203000
7.361634	-0.402190	14.358000
7.387017	-0.388059	14.404000
7.412344	-0.373676	14.451000
7.437491	-0.360629	14.497000
7.462804	-0.348083	14.543000
7.488335	-0.333890	14.589000
7.512919	-0.320253	14.636000
7.537785	-0.303978	14.682000
7.562972	-0.289220	14.729000
7.587733	-0.274791	14.775000
7.613208	-0.260899	14.821000
7.637922	-0.249309	14.867000
7.663121	-0.236607	14.913000
7.687660	-0.225087	14.958000
7.711779	-0.213867	15.004000
7.736621	-0.203333	15.050000
7.761644	-0.193914	15.095000
7.846107	-0.187433	15.142000
7.933103	-0.178590	15.297000
7.958392	-0.181568	15.458000
7.983735	-0.184257	15.504000
8.008367	-0.188949	15.550000
8.033568	-0.191702	15.597000
8.057631	-0.194620	15.643000
8.082695	-0.198708	15.689000
8.108046	-0.203737	15.735000
8.133410	-0.209042	15.782000
8.158247	-0.212570	15.827000
8.183622	-0.216994	15.874000
8.209169	-0.218952	15.919000
8.234039	-0.221829	15.966000
8.259530	-0.224511	16.012000
8.283230	-0.226353	16.059000
8.308425	-0.229326	16.105000
8.333391	-0.230532	16.151000
8.358282	-0.232373	16.197000
8.442812	-0.233580	16.243000
8.528928	-0.231869	16.398000
8.554378	-0.231338	16.557000
8.578642	-0.227860	16.604000
8.603109	-0.224352	16.649000
8.628276	-0.220733	16.696000
8.653425	-0.216775	16.742000
8.678848	-0.214117	16.789000
8.703787	-0.211254	16.834000
8.729467	-0.208682	16.881000
8.754264	-0.206670	16.927000
8.779669	-0.203798	16.974000
8.804176	-0.200931	17.020000
8.828730	-0.198779	17.065000
8.853896	-0.196257	17.113000
8.879378	-0.195471	17.159000
8.904257	-0.192648	17.205000
8.929533	-0.189595	17.252000
8.954987	-0.187943	17.298000
9.038469	-0.184402	17.344000
9.239581	-0.164122	17.499000
9.264723	-0.162518	17.870000
9.289270	-0.158955	17.916000
9.314283	-0.155472	17.963000
9.339180	-0.150000	18.009000
9.364195	-0.145603	18.055000
9.390068	-0.139541	18.101000
9.414958	-0.132275	18.147000
9.440082	-0.125600	18.194000
9.465400	-0.116470	18.241000
9.490511	-0.110233	18.287000
9.515286	-0.102288	18.333000
9.540505	-0.095691	18.379000
9.746713	-0.090260	18.426000
9.771806	-0.030980	18.807000
9.796801	-0.022591	18.853000
9.821830	-0.012261	18.899000
9.847322	-0.003672	18.945000
9.872183	0.002955	18.992000
9.897608	0.010535	19.038000
9.922125	0.016987	19.084000
9.946878	0.023963	19.131000
9.971754	0.032512	19.177000
9.997306	0.040184	19.224000
10.022416	0.047530	19.270000
10.047576	0.053311	19.316000
10.073453	0.062134	19.362000
10.098435	0.068861	19.409000
10.123437	0.074901	19.455000
10.148420	0.081337	19.501000
10.231166	0.085706	19.547000
10.316173	0.104930	19.702000
10.341286	0.107622	19.858000
10.366675	0.108182	19.904000
10.391597	0.109473	19.951000
10.417365	0.108828	19.997000
10.441524	0.109804	20.044000
10.466166	0.111010	20.090000
10.491270	0.113212	20.136000
10.516496	0.115199	20.182000
10.542004	0.117181	20.228000
10.566995	0.121214	20.274000
10.592051	0.124007	20.321000
10.617734	0.125364	20.367000
10.642479	0.126409	20.414000
10.667283	0.125634	20.460000
10.692156	0.126229	20.506000
10.717030	0.127365	20.553000
10.742507	0.126289	20.599000
10.826742	0.126650	20.645000
10.911971	0.141584	20.800000
10.937193	0.144852	20.958000
10.962392	0.149676	21.005000
10.986876	0.153019	21.050000
11.011606	0.157664	21.096000
11.036607	0.160571	21.142000
11.061657	0.162993	21.188000
11.086809	0.167072	21.234000
11.111694	0.171086	21.280000
11.137022	0.175770	21.327000
11.162078	0.180355	21.373000
11.186447	0.186095	21.419000
11.211392	0.189793	21.465000
11.236533	0.193602	21.512000
11.261913	0.197561	21.558000
11.286851	0.200228	21.604000
11.311944	0.205453	21.651000
11.337456	0.210762	21.696000
11.420697	0.213165	21.744000
11.507079	0.233059	21.898000
11.532219	0.236867	22.057000
11.556760	0.238594	22.104000
11.582041	0.242062	22.150000
11.607488	0.244040	22.196000
11.632398	0.248668	22.242000
11.658069	0.251287	22.288000
11.682817	0.251387	22.335000
11.707874	0.251797	22.381000
11.732157	0.249058	22.428000
11.757284	0.248728	22.474000
11.782473	0.246115	22.520000
11.807682	0.244040	22.566000
11.833045	0.243086	22.612000
11.858177	0.244061	22.659000
11.883371	0.245435	22.705000
11.908512	0.248728	22.751000
11.933593	0.250773	22.798000
12.016861	0.253617	22.844000
12.218220	0.303508	22.998000
12.243261	0.310834	23.371000
12.267803	0.318305	23.417000
12.293640	0.324916	23.463000
12.318410	0.332828	23.510000
12.343843	0.340638	23.556000
12.369408	0.349352	23.602000
12.394550	0.358158	23.649000
12.419858	0.365765	23.695000
12.444588	0.375973	23.741000
12.469265	0.386352	23.788000
12.493352	0.395271	23.833000
12.518751	0.404962	23.880000
12.725367	0.413097	23.927000
12.750653	0.476256	24.306000
12.776007	0.483668	24.353000
12.800982	0.491725	24.399000
12.826117	0.500764	24.446000
12.850652	0.509066	24.492000
12.876020	0.517309	24.539000
12.900720	0.523715	24.585000
12.925286	0.529765	24.631000
12.950811	0.538058	24.677000
12.975712	0.544769	24.723000
13.001753	0.554228	24.769000
13.026532	0.560954	24.815000
13.051298	0.568187	24.861000
13.076245	0.575868	24.908000
13.100962	0.581969	24.955000
13.125777	0.590877	25.001000
13.210544	0.597548	25.047000
13.295223	0.630248	25.202000
13.320813	0.635518	25.358000
13.345080	0.641034	25.405000
13.370055	0.650122	25.451000
13.395184	0.656223	25.498000
13.420600	0.661117	25.545000
13.445739	0.669640	25.591000
13.471163	0.676085	25.637000
13.496592	0.685252	25.684000
13.521892	0.694121	25.729000
13.546537	0.704122	25.776000
13.571745	0.711468	25.822000
13.596756	0.716316	25.869000
13.621280	0.724724	25.915000
13.646516	0.729692	25.961000
13.671641	0.734229	26.009000
13.696797	0.740837	26.055000
13.722068	0.745494	26.101000
13.806494	0.753028	26.147000
13.890044	0.779089	26.302000
13.914990	0.780979	26.458000
13.940596	0.782472	26.504000
13.965689	0.781863	26.550000
13.990652	0.783138	26.597000
14.015752	0.781763	26.643000
14.040421	0.782592	26.688000
14.064828	0.782917	26.734000
14.089258	0.783318	26.780000
14.114349	0.784002	26.826000
14.139001	0.784332	26.870000
14.163754	0.785696	26.917000
14.188738	0.787855	26.962000
14.214022	0.787250	27.008000
14.238274	0.790524	27.054000
14.262451	0.791819	27.099000
14.287180	0.795251	27.145000
14.311980	0.796256	27.191000
14.397520	0.797169	27.237000
14.485588	0.808289	27.394000
14.510954	0.810288	27.558000
14.535783	0.814675	27.603000
14.560917	0.819156	27.649000
14.586554	0.822755	27.696000
14.611573	0.828173	27.743000
14.635812	0.833634	27.789000
14.661378	0.840900	27.835000
14.686226	0.846452	27.882000
14.711883	0.852173	27.928000
14.737347	0.858994	27.975000
14.762310	0.863817	28.021000
14.787294	0.871463	28.068000
14.812384	0.877505	28.113000
14.837447	0.882816	28.160000
14.862331	0.889816	28.206000
14.888042	0.895091	28.253000
14.912178	0.902007	28.299000
14.997093	0.909053	28.346000
15.197337	0.969305	28.500000
15.222812	0.978864	28.871000
15.248064	0.987692	28.917000
15.273442	0.994283	28.963000
15.298309	1.003367	29.009000
15.323454	1.013651	29.055000
15.348589	1.023651	29.102000
15.373246	1.035111	29.147000
15.398247	1.046157	29.195000
15.423424	1.056987	29.241000
15.448720	1.066020	29.288000
15.473815	1.076790	29.334000
15.499018	1.085523	29.380000
15.705923	1.095263	29.426000
15.730390	1.187433	29.807000
15.755399	1.198172	29.854000
15.780094	1.210676	29.899000
15.804872	1.220249	29.946000
15.830173	1.228071	29.992000
15.855668	1.236859	30.039000
15.881108	1.243067	30.086000
15.906251	1.247539	30.132000
15.931550	1.253112	30.179000
15.956587	1.257560	30.225000
15.981530	1.260962	30.271000
16.006468	1.262337	30.317000
16.031220	1.265490	30.364000
16.056303	1.268477	30.410000
16.081721	1.268782	30.457000
16.107240	1.270437	30.504000
16.191178	1.270307	30.550000
16.273260	1.268169	30.705000
16.298571	1.269473	30.858000
16.324336	1.268962	30.904000
16.348975	1.269852	30.950000
16.374184	1.270826	30.997000
16.399820	1.271161	31.042000
16.424515	1.272806	31.089000
16.449436	1.271832	31.135000
16.473762	1.271391	31.180000
16.498345	1.268447	31.227000
16.523697	1.266664	31.273000
16.548871	1.265610	31.319000
16.574048	1.262960	31.365000
16.598883	1.264606	31.410000
16.624194	1.263471	31.456000
16.649354	1.264816	31.504000
16.673716	1.263780	31.550000
16.698812	1.261866	31.595000
16.782598	1.262086	31.642000
16.870078	1.252902	31.797000
16.894681	1.251758	31.957000
16.919986	1.251012	32.004000
16.945213	1.249339	32.050000
16.970355	1.251107	32.096000
16.994959	1.251956	32.142000
17.019610	1.251908	32.189000
17.044727	1.252542	32.235000
17.069671	1.252196	32.282000
17.095376	1.254750	32.328000
17.120780	1.253456	32.374000
17.145400	1.252812	32.420000
17.170970	1.252832	32.466000
17.195865	1.252046	32.512000
17.220780	1.255131	32.559000
17.245066	1.254116	32.605000
17.269389	1.254720	32.651000
17.295269	1.256235	32.697000
17.379027	1.256245	32.744000
17.466044	1.264565	32.897000
17.491199	1.261796	33.058000
17.516699	1.257189	33.105000
17.541528	1.251928	33.151000
17.565977	1.244051	33.197000
17.590205	1.239019	33.243000
17.615837	1.232173	33.289000
17.640589	1.226171	33.335000
17.666111	1.218986	33.382000
17.691471	1.210406	33.428000
17.716649	1.200640	33.474000
17.741576	1.187848	33.520000
17.766805	1.175510	33.566000
17.790831	1.160989	33.613000
17.815668	1.144847	33.659000
17.841060	1.128961	33.706000
17.866379	1.110342	33.752000
17.891690	1.092329	33.798000
17.975507	1.075684	33.844000
18.176769	0.907397	33.999000
18.201750	0.892898	34.370000
18.227288	0.877085	34.416000
18.251829	0.862109	34.463000
18.276627	0.846862	34.509000
18.301447	0.829406	34.556000
18.326289	0.815859	34.602000
18.352361	0.798774	34.648000
18.377008	0.783408	34.695000
18.402761	0.767997	34.742000
18.428018	0.750679	34.788000
18.453281	0.734429	34.835000
18.478652	0.715569	34.881000
18.683485	0.698190	34.928000
18.708295	0.549949	35.307000
18.733729	0.531061	35.353000
18.758754	0.513921	35.399000
18.783910	0.494652	35.445000
18.809269	0.476690	35.492000
18.834093	0.457093	35.539000
18.859575	0.437189	35.585000
18.884536	0.421077	35.631000
18.909016	0.400264	35.677000
18.933445	0.382205	35.723000
18.958903	0.366014	35.770000
18.984039	0.348723	35.816000
19.008983	0.333512	35.861000
19.034589	0.315281	35.907000
19.060078	0.299256	35.955000
19.085146	0.285554	36.001000
19.167814	0.270681	36.048000
19.252463	0.182497	36.202000
19.278194	0.167598	36.358000
19.303060	0.151764	36.404000
19.328110	0.138856	36.449000
19.353427	0.123617	36.496000
19.377568	0.110204	36.542000
19.402526	0.096477	36.589000
19.427054	0.083790	36.635000
19.452311	0.072450	36.681000
19.477580	0.059172	36.726000
19.502365	0.047411	36.772000
19.527730	0.034694	36.818000
19.553118	0.025047	36.864000
19.578301	0.014438	36.911000
19.602542	0.001541	36.957000
19.627223	-0.009603	37.004000
19.652452	-0.019767	37.050000
19.677210	-0.029965	37.096000
19.761659	-0.038776	37.142000
19.848633	-0.091234	37.296000
19.873952	-0.095138	37.457000
19.899066	-0.096767	37.504000
19.923839	-0.098280	37.550000
19.948265	-0.099076	37.596000
19.973282	-0.099204	37.642000
19.998031	-0.095922	37.688000
20.023524	-0.093064	37.735000
20.048855	-0.089850	37.780000
20.073741	-0.085978	37.827000
20.099300	-0.082430	37.874000
20.124343	-0.077703	37.920000
20.148736	-0.075603	37.965000
20.173404	-0.072751	38.012000
20.198160	-0.069573	38.058000
20.223747	-0.064060	38.105000
20.248844	-0.056496	38.151000
20.274330	-0.052437	38.197000
20.357515	-0.046696	38.244000
20.444802	-0.002876	38.398000
20.469814	0.006198	38.558000
20.494478	0.017306	38.605000
20.519244	0.024947	38.651000
20.543967	0.035380	38.697000
20.569401	0.044599	38.742000
20.595029	0.053792	38.789000
20.620122	0.064782	38.836000
20.645525	0.073235	38.882000
20.670573	0.083450	38.928000
20.695243	0.094274	38.975000
20.720341	0.104929	39.021000
20.745106	0.114688	39.067000
20.770512	0.122281	39.114000
20.795886	0.132010	39.161000
20.820585	0.139717	39.207000
20.845846	0.146048	39.253000
20.871079	0.157273	39.299000
20.954381	0.162874	39.346000
21.155670	0.230211	39.500000
21.179842	0.239029	39.870000
21.204819	0.245029	39.915000
21.229934	0.252803	39.962000
21.254885	0.259118	40.008000
21.280638	0.267168	40.056000
21.305882	0.274615	40.102000
21.330922	0.281391	40.148000
21.356347	0.289128	40.194000
21.381519	0.296727	40.241000
21.405759	0.305468	40.287000
21.430054	0.313178	40.333000
21.455292	0.317895	40.379000
21.662183	0.326296	40.425000
21.687388	0.393308	40.807000
21.712813	0.400745	40.854000
21.738210	0.412448	40.900000
21.763406	0.420699	40.946000
21.788518	0.431127	40.993000
21.813433	0.439388	41.039000
21.838026	0.450376	41.086000
21.863019	0.461076	41.132000
21.888049	0.470700	41.179000
21.913593	0.481455	41.224000
21.938426	0.491344	41.270000
21.963991	0.500613	41.316000
21.989060	0.509932	41.363000
22.014171	0.517089	41.409000
22.038257	0.529330	41.454000
