Sample	2mm tape 
date	08/01/2025
	
Temperature (K)	77.00
Angle (deg.)	0.000000
field / T	0.300000
	
		
Approx. trace time (s)	120.0	
		
Current / A	V1  -sample/ uV	time/s
-0.018161	1.293636	0.000000
-0.018745	1.296696	0.046000
-0.018222	1.296342	0.092000
-0.018629	1.304949	0.138000
-0.018232	1.307981	0.183000
-0.018409	1.303793	0.230000
-0.018137	1.308164	0.276000
-0.018354	1.308669	0.323000
-0.018512	1.322064	0.478000
-0.018403	1.321484	0.651000
-0.018543	1.326758	0.697000
-0.017535	1.331442	0.743000
0.011308	1.336166	0.788000
0.037993	1.341527	0.835000
0.062338	1.341720	0.881000
0.088426	1.346360	0.927000
0.111885	1.353953	0.973000
0.137430	1.355337	1.019000
0.161692	1.364351	1.065000
0.186884	1.370088	1.113000
0.214076	1.372737	1.159000
0.237091	1.372909	1.205000
0.262714	1.374557	1.251000
0.287187	1.367378	1.297000
0.312869	1.378161	1.342000
0.403393	1.379763	1.389000
0.428750	1.381073	1.558000
0.513939	1.378900	1.604000
0.539115	1.383004	1.761000
0.564462	1.386244	1.807000
0.589051	1.385815	1.853000
0.613402	1.386335	1.900000
0.638200	1.384141	1.945000
0.662891	1.382443	1.991000
0.688685	1.379035	2.037000
0.713847	1.380941	2.083000
0.739117	1.384110	2.130000
0.764018	1.380627	2.176000
0.789401	1.378808	2.223000
0.814245	1.377590	2.268000
0.839232	1.373723	2.315000
0.863392	1.372272	2.361000
0.888159	1.364330	2.407000
0.913536	1.361773	2.453000
0.999654	1.358982	2.499000
1.024681	1.355600	2.658000
1.108880	1.348180	2.704000
1.133584	1.344707	2.859000
1.158202	1.344656	2.906000
1.182991	1.341629	2.951000
1.208329	1.338882	2.997000
1.233218	1.335909	3.044000
1.258615	1.332261	3.090000
1.284039	1.328984	3.135000
1.308821	1.341578	3.181000
1.333524	1.331286	3.227000
1.357503	1.321867	3.273000
1.382851	1.319823	3.320000
1.408295	1.317572	3.366000
1.432859	1.311782	3.412000
1.458586	1.301259	3.458000
1.483448	1.302868	3.504000
1.508957	1.302172	3.550000
1.710241	1.298451	3.597000
1.735712	1.280120	3.970000
1.760798	1.280639	4.016000
1.785541	1.276612	4.062000
1.810718	1.278863	4.109000
1.834796	1.275763	4.154000
1.860397	1.261509	4.202000
1.885070	1.268178	4.248000
1.910356	1.271493	4.293000
1.935657	1.269686	4.340000
1.960611	1.266334	4.386000
1.985882	1.264427	4.431000
2.010848	1.265370	4.478000
2.036119	1.261873	4.525000
2.060546	1.260075	4.571000
2.085660	1.260278	4.618000
2.110776	1.270631	4.664000
2.195269	1.268309	4.710000
2.220339	1.260949	4.865000
2.419905	1.236503	4.911000
2.445293	1.239365	5.280000
2.469957	1.239143	5.326000
2.494541	1.235534	5.372000
2.519365	1.235938	5.418000
2.544108	1.232612	5.465000
2.569936	1.233080	5.511000
2.594713	1.227059	5.558000
2.620514	1.228973	5.604000
2.645673	1.228180	5.651000
2.670891	1.221049	5.697000
2.696097	1.227706	5.743000
2.786139	1.215274	5.789000
2.811715	1.208954	5.958000
2.896556	1.198708	6.004000
2.921908	1.202620	6.161000
2.947533	1.198278	6.208000
2.972270	1.186887	6.253000
2.996640	1.182617	6.300000
3.021599	1.179861	6.346000
3.046956	1.168303	6.392000
3.071768	1.171598	6.439000
3.097205	1.175126	6.485000
3.122188	1.173007	6.532000
3.147869	1.177842	6.578000
3.173234	1.176596	6.624000
3.198633	1.174635	6.671000
3.222908	1.171436	6.717000
3.247627	1.166671	6.763000
3.272879	1.157384	6.810000
3.297497	1.157587	6.856000
3.382938	1.149342	6.901000
3.407793	1.134473	7.058000
3.492959	1.139015	7.104000
3.517518	1.139136	7.261000
3.542370	1.139974	7.307000
3.567257	1.133559	7.353000
3.592527	1.121605	7.400000
3.618166	1.126249	7.445000
3.643088	1.129420	7.493000
3.667882	1.127404	7.539000
3.693052	1.120641	7.585000
3.718357	1.116572	7.631000
3.743441	1.117992	7.677000
3.768402	1.111219	7.724000
3.792936	1.104561	7.770000
3.818329	1.098414	7.817000
3.843526	1.096852	7.862000
3.868733	1.090922	7.909000
3.893653	1.091656	7.955000
3.978719	1.091818	8.001000
4.003790	1.089795	8.158000
4.088257	1.091807	8.204000
4.112224	1.096488	8.360000
4.137820	1.096286	8.407000
4.163065	1.039346	8.453000
4.188355	1.101786	8.499000
4.213555	1.099921	8.546000
4.238756	1.106356	8.592000
4.263658	1.115626	8.638000
4.287819	1.117679	8.684000
4.312549	1.125154	8.730000
4.338059	1.128495	8.776000
4.363150	1.127268	8.823000
4.388726	1.123796	8.869000
4.413909	1.127278	8.916000
4.439232	1.125518	8.962000
4.464573	1.130880	9.009000
4.489318	1.124251	9.055000
4.689322	1.119929	9.101000
4.714363	1.137601	9.470000
4.738997	1.143391	9.516000
4.763588	1.149680	9.563000
4.789077	1.155505	9.609000
4.814548	1.158478	9.656000
4.839400	1.163334	9.702000
4.865245	1.179496	9.749000
4.890335	1.179991	9.796000
4.915788	1.175887	9.842000
4.940787	1.179028	9.888000
4.965884	1.190626	9.934000
4.990909	1.199041	9.980000
5.014738	1.199575	10.027000
5.040313	1.198859	10.074000
5.065229	1.204506	10.119000
5.090866	1.211135	10.166000
5.175130	1.219499	10.212000
5.199953	1.232752	10.367000
5.399577	1.208187	10.413000
5.424760	1.206869	10.782000
5.448759	1.191985	10.828000
5.473250	1.208258	10.873000
5.498768	1.199243	10.919000
5.523389	1.199772	10.965000
5.548454	1.195685	11.010000
5.573602	1.192716	11.056000
5.597504	1.195856	11.102000
5.621915	1.198556	11.148000
5.646374	1.199223	11.193000
5.671895	1.195977	11.239000
5.765525	1.198319	11.285000
5.790994	1.211988	11.457000
5.874751	1.210211	11.504000
5.899058	1.212523	11.660000
5.924695	1.214411	11.706000
5.950020	1.215364	11.752000
5.975043	1.211887	11.798000
6.000582	1.223819	11.845000
6.026455	1.225534	11.892000
6.051033	1.223415	11.938000
6.076261	1.229896	11.984000
6.100467	1.232803	12.030000
6.125157	1.238880	12.076000
6.149709	1.242201	12.122000
6.174727	1.243126	12.168000
6.200355	1.260605	12.214000
6.225189	1.257571	12.261000
6.250628	1.263749	12.307000
6.275884	1.266303	12.353000
6.361930	1.261311	12.400000
6.386834	1.271351	12.558000
6.470426	1.271613	12.604000
6.495541	1.273611	12.760000
6.520931	1.273122	12.807000
6.546032	1.272152	12.852000
6.571229	1.265521	12.899000
6.596355	1.272769	12.944000
6.620410	1.275630	12.990000
6.644855	1.263693	13.036000
6.669523	1.266221	13.081000
6.694305	1.267640	13.127000
6.719251	1.270840	13.173000
6.744681	1.271280	13.219000
6.768832	1.274909	13.264000
6.794373	1.277605	13.310000
6.818658	1.280239	13.357000
6.843550	1.283151	13.402000
6.868506	1.291485	13.449000
6.956805	1.296513	13.495000
6.981149	1.316081	13.658000
7.066291	1.331289	13.703000
7.091154	1.336884	13.860000
7.116597	1.344524	13.906000
7.141834	1.353855	13.952000
7.166393	1.363633	13.998000
7.190956	1.367377	14.043000
7.216164	1.371326	14.090000
7.240695	1.382710	14.137000
7.266298	1.394973	14.183000
7.291404	1.397441	14.229000
7.316882	1.411928	14.275000
7.341842	1.425197	14.322000
7.367155	1.439700	14.368000
7.392457	1.449745	14.415000
7.417194	1.456974	14.461000
7.441788	1.459684	14.507000
7.466713	1.477189	14.554000
7.667871	1.491162	14.600000
7.692512	1.584747	14.970000
7.717716	1.596422	15.016000
7.743141	1.606412	15.062000
7.768080	1.617118	15.108000
7.793023	1.626577	15.153000
7.818506	1.635995	15.200000
7.842877	1.644936	15.246000
7.867236	1.653400	15.292000
7.891697	1.658239	15.338000
7.917055	1.665599	15.384000
7.942484	1.671777	15.431000
7.967590	1.679661	15.477000
7.992893	1.686122	15.522000
8.017961	1.689272	15.568000
8.043351	1.694597	15.616000
8.067760	1.700518	15.662000
8.151043	1.704702	15.708000
8.176350	1.713323	15.862000
8.376146	1.727405	15.909000
8.401095	1.729930	16.277000
8.426465	1.735522	16.323000
8.451386	1.739071	16.369000
8.476727	1.737773	16.415000
8.501175	1.741000	16.462000
8.525458	1.741649	16.508000
8.551083	1.744920	16.554000
8.575782	1.737400	16.601000
8.601347	1.747752	16.647000
8.626232	1.752028	16.694000
8.651807	1.750023	16.739000
8.745243	1.756989	16.785000
8.769715	1.760069	16.958000
8.854067	1.769033	17.004000
8.878812	1.775230	17.160000
8.904371	1.779026	17.206000
8.928752	1.785365	17.252000
8.954431	1.787362	17.299000
8.979766	1.796319	17.344000
9.004567	1.800723	17.391000
9.029143	1.805792	17.436000
9.053353	1.815286	17.483000
9.078953	1.825194	17.529000
9.103811	1.831397	17.574000
9.129001	1.840607	17.622000
9.154487	1.850039	17.668000
9.179270	1.857227	17.714000
9.204907	1.869086	17.760000
9.230023	1.880425	17.806000
9.254241	1.891946	17.852000
9.339896	1.907531	17.900000
9.365069	1.947077	18.058000
9.449867	1.992105	18.104000
9.474825	2.001211	18.259000
9.499876	2.014239	18.305000
9.525065	2.017827	18.352000
9.549712	2.029129	18.398000
9.574043	2.039128	18.444000
9.599167	2.045877	18.490000
9.624370	2.054851	18.536000
9.649606	2.063458	18.582000
9.674841	2.067555	18.629000
9.700021	2.076547	18.675000
9.725483	2.080306	18.721000
9.750228	2.085081	18.767000
9.775158	2.083834	18.813000
9.799629	2.088961	18.860000
9.824718	2.082834	18.906000
9.850124	2.092520	18.953000
9.935821	2.089153	18.999000
9.961482	2.073547	19.158000
10.045712	2.071326	19.204000
10.071394	2.067626	19.360000
10.095238	2.063628	19.406000
10.119756	2.056859	19.451000
10.144897	2.065263	19.498000
10.170261	2.059948	19.544000
10.195582	2.050898	19.591000
10.220932	2.051464	19.637000
10.245805	2.051625	19.683000
10.270867	2.044967	19.729000
10.295727	2.045856	19.775000
10.320150	2.044558	19.821000
10.344904	2.034140	19.867000
10.370029	2.035018	19.913000
10.394959	2.038935	19.958000
10.420563	2.036654	20.005000
10.445828	2.035231	20.052000
10.646897	2.020482	20.098000
10.672125	2.005141	20.470000
10.697156	1.999101	20.517000
10.722336	2.000115	20.562000
10.747823	1.998807	20.609000
10.772631	2.000115	20.655000
10.797073	1.998747	20.702000
10.821871	2.003866	20.747000
10.847160	2.001684	20.794000
10.872254	2.001331	20.840000
10.897577	1.999983	20.887000
10.922679	2.000664	20.932000
10.947828	2.001644	20.979000
10.973123	1.997662	21.025000
10.997752	1.999121	21.071000
11.022512	1.997093	21.118000
11.047315	1.995451	21.163000
11.131563	1.994710	21.210000
11.156662	1.984153	21.364000
11.355536	1.957200	21.411000
11.380691	1.954905	21.778000
11.406017	1.946003	21.825000
11.431032	1.937450	21.871000
11.456032	1.932799	21.918000
11.480286	1.926091	21.963000
11.505255	1.919479	22.010000
11.531143	1.915592	22.057000
11.556216	1.909814	22.103000
11.581211	1.901074	22.149000
11.606651	1.896262	22.195000
11.631823	1.889013	22.242000
11.722745	1.886576	22.287000
11.748007	1.857185	22.458000
11.832304	1.825996	22.504000
11.857629	1.818358	22.660000
11.882910	1.812298	22.706000
11.908261	1.801964	22.752000
11.932157	1.799993	22.798000
11.957021	1.796247	22.844000
11.982619	1.789079	22.891000
12.007795	1.771050	22.937000
12.032695	1.771182	22.983000
12.058022	1.767461	23.029000
12.082942	1.756816	23.075000
12.108061	1.757140	23.122000
12.133050	1.751280	23.167000
12.156967	1.750760	23.213000
12.181937	1.753794	23.259000
12.207025	1.749403	23.306000
12.232277	1.749342	23.352000
12.319161	1.750417	23.398000
12.343986	1.760486	23.558000
12.429092	1.761102	23.604000
12.453845	1.763434	23.760000
12.478621	1.758851	23.806000
12.503099	1.764377	23.851000
12.528031	1.763645	23.899000
12.553726	1.762359	23.944000
12.578494	1.756846	23.991000
12.603971	1.743818	24.037000
12.628755	1.742405	24.084000
12.654387	1.741069	24.130000
12.679609	1.730454	24.177000
12.704983	1.724108	24.223000
12.729305	1.717813	24.269000
12.753933	1.708223	24.315000
12.778969	1.703051	24.362000
12.804317	1.694596	24.408000
12.829591	1.685672	24.454000
12.915088	1.676091	24.500000
12.940369	1.657133	24.658000
13.023936	1.637816	24.703000
13.048181	1.631249	24.860000
13.074006	1.629735	24.906000
13.099060	1.624940	24.952000
13.123865	1.622936	24.998000
13.149183	1.613568	25.044000
13.174803	1.615758	25.091000
13.199349	1.615178	25.136000
13.224327	1.607708	25.183000
13.248981	1.604431	25.229000
13.273839	1.609696	25.276000
13.299436	1.611358	25.322000
13.324238	1.615038	25.368000
13.349862	1.612362	25.415000
13.374838	1.611257	25.460000
13.399512	1.609046	25.506000
13.424632	1.606834	25.551000
13.625534	1.602771	25.599000
13.651005	1.603736	25.970000
13.676313	1.599547	26.017000
13.700805	1.601899	26.063000
13.724899	1.599365	26.108000
13.749669	1.596301	26.154000
13.774508	1.593868	26.200000
13.799513	1.589552	26.245000
13.825127	1.595321	26.291000
13.849897	1.587089	26.338000
13.874969	1.584717	26.384000
13.899454	1.583202	26.430000
13.923563	1.582294	26.476000
13.948906	1.580935	26.521000
13.973745	1.579891	26.568000
13.999344	1.576413	26.614000
14.024455	1.576525	26.660000
14.108121	1.577312	26.706000
14.133030	1.558263	26.861000
14.331822	1.543753	26.908000
14.356829	1.539592	27.275000
14.381856	1.534536	27.321000
14.406868	1.529285	27.367000
14.432053	1.521833	27.413000
14.457524	1.514625	27.459000
14.482636	1.512947	27.505000
14.507477	1.506249	27.551000
14.531780	1.500026	27.598000
14.556165	1.493900	27.644000
14.581903	1.489415	27.690000
14.606787	1.486969	27.736000
14.701825	1.480984	27.783000
14.727166	1.460607	27.958000
14.811408	1.452519	28.004000
14.836605	1.451735	28.160000
14.860505	1.444491	28.205000
14.885292	1.438359	28.251000
14.910480	1.433678	28.297000
14.935808	1.427597	28.344000
14.960997	1.420253	28.390000
14.986523	1.415576	28.436000
15.012062	1.407908	28.482000
15.036973	1.405572	28.528000
15.061828	1.401462	28.574000
15.086193	1.396100	28.621000
15.111599	1.392955	28.667000
15.136606	1.385155	28.713000
15.162049	1.381500	28.759000
15.187095	1.382790	28.805000
15.212081	1.380454	28.852000
15.298937	1.375399	28.899000
15.323738	1.361103	29.058000
15.407577	1.343800	29.103000
15.432479	1.339571	29.260000
15.457797	1.341515	29.306000
15.482983	1.330618	29.352000
15.507573	1.325049	29.398000
15.533036	1.319507	29.444000
15.558128	1.313056	29.490000
15.583657	1.309014	29.536000
15.608160	1.306641	29.583000
15.632003	1.312360	29.629000
15.657890	1.300357	29.676000
15.682776	1.299211	29.722000
15.708083	1.295033	29.768000
15.733195	1.286011	29.814000
15.758667	1.281884	29.861000
15.783925	1.280192	29.907000
15.808536	1.268795	29.953000
15.894291	1.276366	29.999000
15.918911	1.252048	30.158000
16.003562	1.242932	30.203000
16.028473	1.241119	30.360000
16.053897	1.242356	30.406000
16.079219	1.235643	30.452000
16.104366	1.231741	30.498000
16.129395	1.240418	30.546000
16.154282	1.234204	30.591000
16.179134	1.229884	30.638000
16.203479	1.234761	30.684000
16.229157	1.234619	30.731000
16.254230	1.235975	30.777000
16.279418	1.235886	30.823000
16.304503	1.238127	30.869000
16.329881	1.235057	30.915000
16.354785	1.241008	30.961000
16.379799	1.245813	31.008000
16.404415	1.240115	31.053000
16.605474	1.241159	31.100000
16.629703	1.229217	31.470000
16.654934	1.230352	31.516000
16.679665	1.226144	31.563000
16.705118	1.214176	31.610000
16.730889	1.224973	31.656000
16.755775	1.225810	31.702000
16.781010	1.217042	31.749000
16.806281	1.212656	31.795000
16.831117	1.207513	31.841000
16.855359	1.208739	31.887000
16.880415	1.210294	31.933000
16.905271	1.206306	31.979000
16.930603	1.206116	32.026000
16.955737	1.202910	32.072000
16.981656	1.201139	32.118000
17.006631	1.193038	32.165000
17.089917	1.196827	32.212000
17.114476	1.201381	32.365000
17.313226	1.215574	32.411000
17.338608	1.217886	32.779000
17.363785	1.220787	32.825000
17.388986	1.219884	32.872000
17.414810	1.222851	32.918000
17.439818	1.218228	32.964000
17.465350	1.217643	33.011000
17.490022	1.215825	33.058000
17.514680	1.215200	33.104000
17.538777	1.221545	33.150000
17.563510	1.220046	33.195000
17.589042	1.223594	33.240000
17.682058	1.220560	33.287000
17.706957	1.220218	33.458000
17.790245	1.219414	33.503000
17.815541	1.208245	33.660000
17.840403	1.222701	33.706000
17.866115	1.211192	33.752000
17.891023	1.215483	33.797000
17.915824	1.212318	33.844000
17.941434	1.217228	33.890000
17.966083	1.215564	33.936000
17.991041	1.209773	33.982000
18.015321	1.209854	34.029000
18.041024	1.211722	34.075000
18.065780	1.207441	34.121000
18.091181	1.210708	34.168000
18.116139	1.203933	34.214000
18.141675	1.200294	34.260000
18.166881	1.209804	34.307000
18.191504	1.206623	34.352000
18.277505	1.207532	34.399000
18.302077	1.203510	34.558000
18.386357	1.213486	34.604000
18.411643	1.213395	34.760000
18.437060	1.210661	34.807000
18.461962	1.209373	34.852000
18.487313	1.204032	34.899000
18.512646	1.214330	34.945000
18.537092	1.215193	34.992000
18.561391	1.219346	35.037000
18.586297	1.218761	35.083000
18.611689	1.215605	35.129000
18.637150	1.218782	35.175000
18.661820	1.220583	35.221000
18.687827	1.221366	35.268000
18.712542	1.221094	35.315000
18.737633	1.214381	35.361000
18.762222	1.208681	35.407000
18.786524	1.213114	35.452000
18.909260	1.215899	35.499000
18.976815	1.249035	35.725000
19.002579	1.258121	35.851000
19.027574	1.263485	35.898000
19.052939	1.265450	35.944000
19.078265	1.280769	35.990000
19.103623	1.284488	36.036000
19.128822	1.288840	36.083000
19.153550	1.299677	36.129000
19.178849	1.311468	36.176000
19.203385	1.315737	36.222000
19.228071	1.310800	36.268000
19.253333	1.314551	36.315000
19.278788	1.325479	36.361000
19.303642	1.332505	36.407000
19.329297	1.331380	36.453000
19.354376	1.325682	36.500000
19.379134	1.333894	36.545000
19.583220	1.332434	36.592000
19.609015	1.333137	36.970000
19.634517	1.351961	37.018000
19.659503	1.365549	37.064000
19.685074	1.382260	37.110000
19.709936	1.396218	37.156000
19.735105	1.403234	37.203000
19.760633	1.413349	37.250000
19.785410	1.428802	37.296000
19.809673	1.442628	37.342000
19.834755	1.450140	37.388000
19.860499	1.462818	37.435000
19.885497	1.476841	37.481000
19.910180	1.487643	37.527000
19.935906	1.491500	37.573000
19.960785	1.503627	37.619000
19.985712	1.516174	37.666000
20.068580	1.523139	37.712000
20.094129	1.563025	37.866000
20.293694	1.614333	37.913000
20.318371	1.616917	38.281000
20.343661	1.618255	38.327000
20.368519	1.619320	38.373000
20.394332	1.623202	38.418000
20.418811	1.621723	38.465000
20.443003	1.624065	38.511000
20.468108	1.623352	38.558000
20.492782	1.623913	38.604000
20.518285	1.623474	38.650000
20.543306	1.627482	38.696000
20.568375	1.621874	38.742000
20.660287	1.619714	38.787000
20.684905	1.618719	38.958000
20.769223	1.605949	39.004000
20.794836	1.608837	39.160000
20.820293	1.608422	39.207000
20.845222	1.605299	39.253000
20.871173	1.600992	39.300000
20.896050	1.596975	39.346000
20.920791	1.603597	39.392000
20.945270	1.601487	39.439000
20.970520	1.602815	39.485000
20.995614	1.598311	39.531000
21.020695	1.607458	39.577000
21.045685	1.601870	39.623000
21.070624	1.601093	39.669000
21.095891	1.605692	39.715000
21.120927	1.608968	39.761000
21.145678	1.611280	39.808000
21.170094	1.608645	39.854000
21.255480	1.616654	39.901000
21.281131	1.611450	40.058000
21.365242	1.617709	40.104000
21.391087	1.614839	40.260000
21.416372	1.616634	40.307000
21.441619	1.617008	40.353000
21.465826	1.618936	40.399000
21.490511	1.619613	40.446000
21.515767	1.621112	40.492000
21.540509	1.622646	40.537000
21.566420	1.621237	40.584000
21.591460	1.625423	40.630000
21.616266	1.630299	40.676000
21.641380	1.636441	40.722000
21.666051	1.640408	40.768000
21.691107	1.647086	40.815000
21.715729	1.659856	40.861000
21.741105	1.670026	40.908000
21.765992	1.678329	40.954000
21.852052	1.693729	41.000000
21.876647	1.733741	41.158000
21.960892	1.781843	41.204000
21.985410	1.796674	41.359000
22.010151	1.805844	41.404000
22.035399	1.820595	41.451000
22.060821	1.835775	41.498000
22.085985	1.845137	41.544000
22.111221	1.857719	41.590000
22.136227	1.881766	41.636000
22.161688	1.888110	41.683000
22.185597	1.898720	41.728000
22.210424	1.909280	41.775000
22.235478	1.917454	41.820000
22.260292	1.932408	41.867000
22.285805	1.928632	41.914000
22.311137	1.956247	41.960000
