Sample	2mm tape 
date	08/01/2025
	
Temperature (K)	77.00
Angle (deg.)	0.000000
field / T	0.450000
	
		
Approx. trace time (s)	120.0	
		
Current / A	V1  -sample/ uV	time/s
-0.018184	2.384685	0.000000
-0.018639	2.386393	0.176000
-0.018713	2.387243	0.221000
-0.018399	2.393183	0.268000
-0.019117	2.400087	0.313000
-0.018633	2.407705	0.360000
-0.019105	2.412459	0.406000
-0.018461	2.421626	0.452000
-0.018001	2.429565	0.499000
-0.019480	2.438726	0.545000
-0.018283	2.442582	0.591000
-0.018621	2.448937	0.638000
-0.018246	2.453641	0.683000
-0.018682	2.457970	0.729000
0.004828	2.458355	0.776000
0.029032	2.461030	0.822000
0.055184	2.466668	0.868000
0.137643	2.471503	0.914000
0.163398	2.482370	1.069000
0.364204	2.480971	1.115000
0.389016	2.477897	1.485000
0.413261	2.482864	1.531000
0.438484	2.486750	1.577000
0.463332	2.496229	1.623000
0.488508	2.496874	1.669000
0.514196	2.498570	1.715000
0.539089	2.497243	1.762000
0.564580	2.493216	1.809000
0.589021	2.492660	1.854000
0.613379	2.491757	1.900000
0.638006	2.500362	1.946000
0.730909	2.507217	1.992000
0.756027	2.518249	2.162000
0.844528	2.508932	2.209000
0.869774	2.520057	2.373000
0.894573	2.523206	2.419000
0.919875	2.530793	2.465000
0.945452	2.530408	2.512000
0.970147	2.539842	2.558000
0.994912	2.544113	2.604000
1.019526	2.546867	2.651000
1.044953	2.548301	2.697000
1.069765	2.553440	2.743000
1.095291	2.557160	2.789000
1.120094	2.565825	2.835000
1.145596	2.569813	2.881000
1.170819	2.575243	2.928000
1.195341	2.585515	2.974000
1.219729	2.596140	3.020000
1.244757	2.602831	3.066000
1.329350	2.610150	3.112000
1.354451	2.630261	3.268000
1.440651	2.666161	3.314000
1.465548	2.681583	3.473000
1.491110	2.692495	3.518000
1.515681	2.697642	3.565000
1.540346	2.706477	3.612000
1.565208	2.715065	3.658000
1.590276	2.718048	3.704000
1.615379	2.728956	3.750000
1.641096	2.738494	3.796000
1.665870	2.751010	3.844000
1.691435	2.755397	3.889000
1.716148	2.756484	3.935000
1.740544	2.766952	3.980000
1.765159	2.774362	4.027000
1.790184	2.776537	4.073000
1.815516	2.785448	4.119000
1.840101	2.791316	4.166000
1.924759	2.802301	4.212000
1.949927	2.811480	4.367000
2.036348	2.836302	4.412000
2.060869	2.841522	4.573000
2.085906	2.843101	4.619000
2.111176	2.850517	4.665000
2.136039	2.860479	4.712000
2.161420	2.860682	4.758000
2.186161	2.861222	4.803000
2.212126	2.862691	4.850000
2.236704	2.867173	4.897000
2.261529	2.871594	4.942000
2.286040	2.880653	4.989000
2.310561	2.890622	5.034000
2.335778	2.897582	5.080000
2.360594	2.911907	5.127000
2.386359	2.924903	5.173000
2.411886	2.932060	5.219000
2.436471	2.939222	5.265000
2.635893	2.949251	5.312000
2.660932	2.972050	5.679000
2.685210	2.975457	5.725000
2.709803	2.976116	5.772000
2.734976	2.982290	5.818000
2.759949	2.980972	5.863000
2.785399	2.992565	5.911000
2.810406	2.988906	5.957000
2.836060	2.984662	6.003000
2.861380	2.990244	6.049000
2.886109	2.986645	6.096000
2.911349	2.986543	6.142000
2.935749	2.978000	6.188000
2.960347	2.982896	6.235000
2.985852	2.983971	6.280000
3.010512	2.985107	6.326000
3.035858	2.985540	6.373000
3.119667	2.991536	6.419000
3.144592	2.988180	6.573000
3.343430	2.966769	6.620000
3.367849	2.957280	6.987000
3.393429	2.956468	7.033000
3.418356	2.957093	7.079000
3.444055	2.960199	7.126000
3.468513	2.952991	7.172000
3.493563	2.953463	7.218000
3.518684	2.955866	7.263000
3.543016	2.953173	7.309000
3.567489	2.936401	7.355000
3.592340	2.932367	7.402000
3.618126	2.931798	7.448000
3.709792	2.927471	7.494000
3.735449	2.898904	7.663000
3.823595	2.872180	7.710000
3.848766	2.865111	7.873000
3.873308	2.858333	7.919000
3.897644	2.850830	7.964000
3.922511	2.839940	8.011000
3.947610	2.832158	8.057000
3.973536	2.828463	8.104000
3.998126	2.821887	8.150000
4.023466	2.811990	8.196000
4.048358	2.805793	8.242000
4.073630	2.797174	8.288000
4.097942	2.794333	8.334000
4.122776	2.787428	8.380000
4.147606	2.900505	8.426000
4.172138	2.755569	8.472000
4.197733	2.765324	8.519000
4.222879	2.763530	8.565000
4.307372	2.759672	8.611000
4.331735	2.738544	8.765000
4.419347	2.728061	8.812000
4.443967	2.724861	8.973000
4.468318	2.723552	9.019000
4.493571	2.725746	9.065000
4.518958	2.720822	9.111000
4.543864	2.722966	9.157000
4.569356	2.712396	9.203000
4.594689	2.704172	9.250000
4.619930	2.701584	9.296000
4.644061	2.700962	9.342000
4.668214	2.697206	9.388000
4.693105	2.693451	9.434000
4.718001	2.693198	9.480000
4.743483	2.691859	9.526000
4.768742	2.692334	9.572000
4.794046	2.686880	9.619000
4.819336	2.678079	9.664000
4.901968	2.672535	9.711000
4.927066	2.674940	9.865000
5.014211	2.669299	9.912000
5.039212	2.668809	10.072000
5.063860	2.663360	10.119000
5.089623	2.657835	10.164000
5.114591	2.656546	10.211000
5.140087	2.660747	10.256000
5.165064	2.658391	10.303000
5.189456	2.654595	10.349000
5.213379	2.659296	10.395000
5.238639	2.661561	10.441000
5.263842	2.662526	10.487000
5.289291	2.662354	10.534000
5.314381	2.660862	10.579000
5.339063	2.659377	10.625000
5.364060	2.658972	10.671000
5.389360	2.657865	10.718000
5.413840	2.660191	10.763000
5.612269	2.666018	10.810000
5.637816	2.658350	11.177000
5.662848	2.655711	11.224000
5.687858	2.650273	11.270000
5.712908	2.650505	11.315000
5.738418	2.654534	11.362000
5.763459	2.653715	11.408000
5.788589	2.649024	11.455000
5.812947	2.640451	11.501000
5.837974	2.639183	11.547000
5.863134	2.638950	11.594000
5.887768	2.636615	11.640000
5.913871	2.639824	11.686000
5.939046	2.636190	11.733000
5.964642	2.634891	11.779000
5.989563	2.634169	11.826000
6.014549	2.631934	11.872000
6.097158	2.635022	11.918000
6.122290	2.634658	12.072000
6.321321	2.654645	12.119000
6.346665	2.654666	12.486000
6.372183	2.663491	12.532000
6.397427	2.667843	12.578000
6.422514	2.672200	12.624000
6.447383	2.677437	12.671000
6.471319	2.679276	12.717000
6.496069	2.684250	12.763000
6.521344	2.691236	12.809000
6.547034	2.694203	12.855000
6.572037	2.704192	12.902000
6.596762	2.708089	12.948000
6.687943	2.713144	12.995000
6.712880	2.722161	13.163000
6.801892	2.733890	13.210000
6.826049	2.735057	13.372000
6.851247	2.738620	13.418000
6.876002	2.736073	13.463000
6.900754	2.736751	13.509000
6.926442	2.733950	13.555000
6.951837	2.732823	13.602000
6.977021	2.720125	13.648000
7.001674	2.713731	13.695000
7.026270	2.722349	13.741000
7.051234	2.731418	13.787000
7.076398	2.728668	13.834000
7.101222	2.731488	13.880000
7.126149	2.729031	13.926000
7.151706	2.723345	13.972000
7.176976	2.723213	14.018000
7.202183	2.720909	14.064000
7.284861	2.719286	14.111000
7.310003	2.704825	14.266000
7.397253	2.690605	14.312000
7.422512	2.681632	14.473000
7.447850	2.678109	14.519000
7.473167	2.676841	14.566000
7.498865	2.674090	14.611000
7.523447	2.676487	14.658000
7.549042	2.673358	14.704000
7.573552	2.675198	14.750000
7.598562	2.669754	14.796000
7.623195	2.668667	14.843000
7.648234	2.665715	14.889000
7.673217	2.659133	14.935000
7.698562	2.654018	14.981000
7.723853	2.648393	15.027000
7.748737	2.643743	15.073000
7.773488	2.641856	15.118000
7.797764	2.639142	15.164000
7.881539	2.634199	15.211000
7.906706	2.632106	15.365000
7.993930	2.633077	15.412000
8.019250	2.627577	15.573000
8.044436	2.627016	15.619000
8.069621	2.633658	15.665000
8.094349	2.638642	15.711000
8.118405	2.642949	15.757000
8.143638	2.643697	15.804000
8.168473	2.650075	15.850000
8.193810	2.652866	15.896000
8.218888	2.655616	15.942000
8.244097	2.658194	15.988000
8.269016	2.657637	16.034000
8.294122	2.659943	16.080000
8.319289	2.668743	16.127000
8.343486	2.671230	16.172000
8.368409	2.678549	16.219000
8.393460	2.682866	16.265000
8.592094	2.682623	16.311000
8.617546	2.740859	16.678000
8.642500	2.744105	16.724000
8.668312	2.751823	16.770000
8.693637	2.760037	16.817000
8.718662	2.765072	16.864000
8.743451	2.776890	16.910000
8.767767	2.776677	16.956000
8.793123	2.778300	17.002000
8.817761	2.777602	17.049000
8.843185	2.780696	17.095000
8.868405	2.785376	17.142000
8.894062	2.788859	17.188000
8.918820	2.789501	17.234000
8.943888	2.793399	17.279000
8.968302	2.796537	17.326000
8.992700	2.800900	17.372000
9.076615	2.807410	17.417000
9.102132	2.820294	17.572000
9.301484	2.836301	17.618000
9.326363	2.837088	17.986000
9.351965	2.839991	18.033000
9.376471	2.839980	18.079000
9.401348	2.845473	18.125000
9.425872	2.846641	18.171000
9.451067	2.852493	18.217000
9.476276	2.858666	18.263000
9.501384	2.861281	18.310000
9.526061	2.866096	18.355000
9.551307	2.868438	18.401000
9.576213	2.868257	18.447000
9.667569	2.868276	18.494000
9.692342	2.867202	18.663000
9.780625	2.866107	18.709000
9.806078	2.868074	18.873000
9.831594	2.871041	18.919000
9.856529	2.873535	18.965000
9.881543	2.870139	19.011000
9.906349	2.868337	19.057000
9.931061	2.874146	19.103000
9.956098	2.876185	19.150000
9.980491	2.877977	19.196000
10.005888	2.878239	19.243000
10.031593	2.876377	19.288000
10.056363	2.871274	19.335000
10.081869	2.865530	19.381000
10.107098	2.864759	19.427000
10.131719	2.865520	19.473000
10.156053	2.865753	19.519000
10.180678	2.864971	19.564000
10.264874	2.868599	19.611000
10.289888	2.848780	19.766000
10.376685	2.837785	19.812000
10.401829	2.841877	19.973000
10.426972	2.844851	20.019000
10.452193	2.850822	20.064000
10.477108	2.855275	20.111000
10.501513	2.853498	20.157000
10.526059	2.849466	20.203000
10.551617	2.856985	20.250000
10.576412	2.852812	20.295000
10.601602	2.848916	20.342000
10.627083	2.848014	20.388000
10.652270	2.845836	20.434000
10.677172	2.847953	20.479000
10.701128	2.849233	20.526000
10.726111	2.850944	20.572000
10.750982	2.854089	20.619000
10.776545	2.851868	20.664000
10.860757	2.853795	20.711000
10.886267	2.852569	20.865000
10.972639	2.842953	20.912000
10.998270	2.846495	21.073000
11.023200	2.845377	21.119000
11.047351	2.846272	21.165000
11.072768	2.850213	21.211000
11.097592	2.851687	21.258000
11.122894	2.851444	21.304000
11.148174	2.848948	21.350000
11.172825	2.849325	21.396000
11.198656	2.846445	21.443000
11.223735	2.842912	21.489000
11.248730	2.842700	21.535000
11.272687	2.843170	21.582000
11.297866	2.841485	21.628000
11.323327	2.840198	21.674000
11.348463	2.844212	21.721000
11.373758	2.847691	21.767000
11.572420	2.847579	21.813000
11.597872	2.814785	22.180000
11.622611	2.812288	22.226000
11.647398	2.806975	22.272000
11.672628	2.802123	22.319000
11.697194	2.799505	22.365000
11.722165	2.795962	22.411000
11.747197	2.789006	22.458000
11.772588	2.780226	22.504000
11.797606	2.776460	22.550000
11.822777	2.770031	22.596000
11.847953	2.773594	22.642000
11.872382	2.764692	22.688000
11.896947	2.761735	22.734000
11.921724	2.759992	22.780000
11.947291	2.756448	22.827000
11.972264	2.753147	22.873000
12.056229	2.756873	22.919000
12.081660	2.748456	23.074000
12.280129	2.751373	23.119000
12.304955	2.755816	23.487000
12.329968	2.764152	23.534000
12.355089	2.763333	23.580000
12.380294	2.763757	23.627000
12.405652	2.765596	23.673000
12.430810	2.762448	23.719000
12.455861	2.764328	23.765000
12.481643	2.770222	23.811000
12.506366	2.777086	23.858000
12.531386	2.780549	23.904000
12.555722	2.785790	23.951000
12.646656	2.789198	23.997000
12.671291	2.808967	24.163000
12.759536	2.816099	24.209000
12.785306	2.815623	24.373000
12.809944	2.819075	24.419000
12.835233	2.818110	24.465000
12.859180	2.814971	24.511000
12.883915	2.819217	24.557000
12.908751	2.820435	24.602000
12.934405	2.825682	24.648000
12.959349	2.824964	24.695000
12.984301	2.826657	24.741000
13.009902	2.820911	24.788000
13.035124	2.817175	24.834000
13.060546	2.811999	24.881000
13.084562	2.806160	24.927000
13.109439	2.807874	24.973000
13.134349	2.817246	25.019000
13.159240	2.822679	25.065000
13.244082	2.825470	25.110000
13.268692	2.846924	25.265000
13.355868	2.855794	25.312000
13.380896	2.860640	25.472000
13.405432	2.863673	25.519000
13.430151	2.867796	25.564000
13.455150	2.875221	25.611000
13.480568	2.873974	25.658000
13.505996	2.881010	25.704000
13.531112	2.892746	25.751000
13.556128	2.899922	25.797000
13.581523	2.907549	25.843000
13.606804	2.909598	25.889000
13.631643	2.921732	25.936000
13.656211	2.929545	25.981000
13.680666	2.934329	26.028000
13.706467	2.939260	26.075000
13.731350	2.949844	26.121000
13.756689	2.957320	26.167000
13.840599	2.961564	26.213000
13.865648	2.989142	26.368000
13.951205	3.005597	26.414000
13.975893	3.006682	26.573000
14.001490	3.011568	26.620000
14.026246	3.017065	26.665000
14.051129	3.018780	26.712000
14.076488	3.020219	26.756000
14.101023	3.027608	26.802000
14.126093	3.031489	26.848000
14.150168	3.031448	26.895000
14.174801	3.032140	26.941000
14.200056	3.031938	26.987000
14.225162	3.040605	27.033000
14.250261	3.045928	27.078000
14.275560	3.046283	27.126000
14.301627	3.045772	27.172000
14.326134	3.050134	27.218000
14.351258	3.054707	27.264000
14.549466	3.056664	27.310000
14.574407	3.055822	27.678000
14.598869	3.053359	27.723000
14.623846	3.053278	27.770000
14.649440	3.057313	27.816000
14.674727	3.049851	27.862000
14.699872	3.048402	27.908000
14.725502	3.048898	27.955000
14.749878	3.045833	28.001000
14.774833	3.043370	28.047000
14.799796	3.035628	28.094000
14.824552	3.035078	28.141000
14.849752	3.032756	28.186000
14.874735	3.037269	28.232000
14.900242	3.034655	28.278000
14.925515	3.034977	28.325000
14.951100	3.033387	28.372000
15.035080	3.037778	28.418000
15.059760	3.031736	28.573000
15.259018	3.033639	28.620000
15.284308	3.036032	28.988000
15.309866	3.033900	29.034000
15.334754	3.038303	29.080000
15.360226	3.036103	29.126000
15.385221	3.038644	29.173000
15.410648	3.039125	29.219000
15.435624	3.043920	29.265000
15.460182	3.046050	29.312000
15.485115	3.056684	29.358000
15.510243	3.068857	29.405000
15.535595	3.070601	29.451000
15.626274	3.076909	29.497000
15.650448	3.083860	29.663000
15.739666	3.087540	29.709000
15.764803	3.078967	29.873000
15.789602	3.079912	29.919000
15.814517	3.082177	29.965000
15.839409	3.087995	30.012000
15.864497	3.092979	30.059000
15.889498	3.092463	30.104000
15.914723	3.094197	30.150000
15.939636	3.096168	30.196000
15.964576	3.099539	30.242000
15.989008	3.095708	30.288000
16.013378	3.091639	30.334000
16.038670	3.089956	30.380000
16.064249	3.086452	30.427000
16.089052	3.082055	30.473000
16.114289	3.080726	30.519000
16.139687	3.087353	30.566000
16.223427	3.089526	30.612000
16.248485	3.073058	30.767000
16.335070	3.059445	30.813000
16.359369	3.049536	30.972000
16.384678	3.038902	31.019000
16.410033	3.033093	31.065000
16.434832	3.043328	31.111000
16.460218	3.057494	31.157000
16.485347	3.041992	31.203000
16.510470	3.038665	31.250000
16.535372	3.035728	31.296000
16.559507	3.026875	31.343000
16.584905	3.023675	31.389000
16.609999	3.021978	31.435000
16.635468	3.007836	31.481000
16.660823	3.007353	31.527000
16.686209	3.003471	31.575000
16.711751	3.005363	31.621000
16.736934	3.008256	31.667000
16.819773	3.003329	31.713000
16.844564	3.010466	31.869000
16.930653	3.011435	31.915000
16.955637	3.008185	32.073000
16.980830	3.009573	32.119000
17.006074	3.015888	32.165000
17.031141	3.009796	32.211000
17.056078	3.010526	32.257000
17.080327	3.013010	32.303000
17.105540	3.011702	32.349000
17.130594	3.007656	32.395000
17.155490	3.001291	32.442000
17.180932	3.002007	32.488000
17.206089	3.004278	32.534000
17.231147	3.005504	32.580000
17.255978	3.006988	32.626000
17.281103	3.008003	32.673000
17.305863	3.008023	32.719000
17.330185	3.013273	32.765000
17.529240	3.019708	32.812000
17.553887	3.024680	33.178000
17.579438	3.022348	33.224000
17.604379	3.028794	33.270000
17.629304	3.031907	33.316000
17.654452	3.025997	33.362000
17.678753	3.021898	33.408000
17.704058	3.027214	33.454000
17.728597	3.022449	33.501000
17.754196	3.023247	33.547000
17.779631	3.026371	33.594000
17.804713	3.032871	33.640000
17.830211	3.042441	33.686000
17.855278	3.042623	33.732000
17.880257	3.046747	33.779000
17.904285	3.047216	33.824000
17.929464	3.044651	33.871000
18.013467	3.041953	33.917000
18.038788	3.034815	34.072000
18.237843	3.029195	34.118000
18.262956	3.032089	34.486000
18.288245	3.029413	34.532000
18.313235	3.031135	34.578000
18.337666	3.029287	34.625000
18.362004	3.023432	34.670000
18.387010	3.026017	34.716000
18.412267	3.030579	34.762000
18.437398	3.039115	34.809000
18.463356	3.048573	34.855000
18.488153	3.056044	34.902000
18.513839	3.069953	34.948000
18.603854	3.075424	34.994000
18.628977	3.097193	35.163000
18.717700	3.128624	35.208000
18.742417	3.134159	35.373000
18.768003	3.140098	35.419000
18.793019	3.148848	35.466000
18.818572	3.160949	35.512000
18.843480	3.175098	35.559000
18.869014	3.179384	35.604000
18.894373	3.183696	35.651000
18.918626	3.192238	35.697000
18.943737	3.195565	35.743000
18.968086	3.199710	35.789000
18.993207	3.200377	35.835000
19.018553	3.205139	35.882000
19.043567	3.209586	35.928000
19.069155	3.209525	35.974000
19.094149	3.222198	36.020000
19.119739	3.230412	36.067000
19.202136	3.235932	36.113000
19.227305	3.266655	36.267000
19.313346	3.269553	36.313000
19.338894	3.267130	36.472000
19.363608	3.268967	36.518000
19.388907	3.273120	36.564000
19.414084	3.273600	36.611000
19.438233	3.275221	36.657000
19.463012	3.280971	36.702000
19.487765	3.280941	36.748000
19.513080	3.287825	36.795000
19.538007	3.283771	36.841000
19.563631	3.286164	36.887000
19.588602	3.289173	36.934000
19.613668	3.295723	36.980000
19.639115	3.294259	37.026000
19.663268	3.300467	37.072000
19.687498	3.306382	37.118000
19.712957	3.312854	37.164000
19.797416	3.318300	37.211000
19.822565	3.329993	37.365000
19.909753	3.343253	37.411000
19.935049	3.340607	37.573000
19.959650	3.346896	37.619000
19.984900	3.353201	37.665000
20.009198	3.359939	37.711000
20.033928	3.362129	37.757000
20.059565	3.369286	37.804000
20.084831	3.377594	37.851000
20.109767	3.382969	37.897000
20.135130	3.380486	37.942000
20.160178	3.377881	37.989000
20.185459	3.387653	38.036000
20.210184	3.393553	38.081000
20.234531	3.392892	38.127000
20.258876	3.397687	38.173000
20.284695	3.404562	38.219000
20.309170	3.408584	38.265000
20.508637	3.418239	38.312000
20.533955	3.455424	38.679000
20.558898	3.463605	38.725000
20.584132	3.474854	38.771000
20.608268	3.476683	38.817000
20.632986	3.488129	38.863000
20.657759	3.499948	38.909000
20.683230	3.515825	38.955000
20.707995	3.518454	39.001000
20.732999	3.523827	39.047000
20.758666	3.537227	39.094000
20.783894	3.541458	39.140000
20.809190	3.550172	39.187000
20.834260	3.562668	39.233000
20.858697	3.574051	39.280000
20.883434	3.580945	39.325000
20.908610	3.583043	39.371000
20.993355	3.595923	39.417000
21.018474	3.645217	39.573000
21.217831	3.723669	39.619000
21.242996	3.738236	39.988000
21.268611	3.755977	40.034000
21.292655	3.778144	40.080000
21.317351	3.783915	40.127000
21.342770	3.794780	40.174000
21.367507	3.807712	40.220000
21.392660	3.819563	40.266000
21.417985	3.832003	40.312000
21.443221	3.837985	40.358000
21.468517	3.849406	40.404000
21.493279	3.858735	40.450000
21.582701	3.874273	40.496000
21.608068	3.918548	40.663000
21.696727	3.970556	40.709000
21.721576	3.982546	40.873000
21.746906	3.999434	40.919000
21.772217	4.019157	40.965000
21.797204	4.036617	41.011000
21.821904	4.052110	41.058000
21.845965	4.063095	41.103000
21.871499	4.078799	41.149000
21.896190	4.096546	41.195000
21.921974	4.105746	41.242000
21.946551	4.120243	41.288000
21.971980	4.136761	41.334000
21.996987	4.159168	41.380000
22.021605	4.180128	41.426000
22.046236	4.192227	41.472000
22.071211	4.216555	41.519000
22.096137	4.232929	41.564000
22.180119	4.257290	41.611000
22.205355	4.322364	41.765000
22.292929	4.398033	41.812000
22.317288	4.417312	41.972000
22.342261	4.444330	42.018000
22.366237	4.466672	42.064000
22.390933	4.490132	42.109000
22.416022	4.513252	42.155000
22.441345	4.538390	42.202000
