Sample	2mm tape 
date	08/01/2025
	
Temperature (K)	77.00
Angle (deg.)	0.000000
field / T	0.150000
	
		
Approx. trace time (s)	120.0	
		
Current / A	V1  -sample/ uV	time/s
-0.016283	3.002025	0.000000
-0.016111	2.993591	0.045000
-0.016044	2.988186	0.090000
-0.016123	2.986454	0.136000
-0.016074	2.983077	0.183000
-0.016056	2.979681	0.228000
-0.016007	2.976406	0.275000
-0.016044	2.973265	0.321000
-0.015952	2.969551	0.367000
-0.017584	2.965569	0.414000
-0.017112	2.929364	0.780000
-0.018001	2.924640	0.827000
-0.017192	2.921224	0.872000
-0.018216	2.917685	0.919000
-0.017069	2.915688	0.965000
-0.018069	2.910068	1.011000
-0.017063	2.905632	1.058000
-0.018498	2.901131	1.104000
0.003815	2.896930	1.150000
0.028475	2.892175	1.196000
0.054370	2.887502	1.243000
0.078293	2.884333	1.289000
0.104546	2.880947	1.336000
0.128457	2.876827	1.382000
0.153550	2.872624	1.429000
0.177925	2.866875	1.475000
0.263291	2.860722	1.521000
0.289133	2.838618	1.675000
0.487904	2.780276	1.721000
0.512948	2.775767	2.089000
0.537825	2.770439	2.136000
0.562269	2.765444	2.182000
0.586780	2.763504	2.228000
0.611632	2.759434	2.274000
0.637031	2.754385	2.320000
0.662167	2.749239	2.366000
0.687536	2.742703	2.413000
0.712617	2.736925	2.459000
0.737615	2.728676	2.505000
0.761837	2.717343	2.551000
0.848796	2.709316	2.597000
0.872707	2.692868	2.756000
0.960304	2.661401	2.803000
0.985591	2.652783	2.964000
1.010438	2.649811	3.011000
1.035777	2.645585	3.056000
1.060773	2.644751	3.103000
1.085983	2.642997	3.149000
1.111495	2.636805	3.194000
1.136465	2.630315	3.241000
1.161632	2.621318	3.288000
1.185801	2.613862	3.334000
1.210470	2.604834	3.380000
1.235469	2.593225	3.426000
1.260421	2.585256	3.472000
1.286048	2.579275	3.518000
1.311095	2.571896	3.565000
1.336525	2.565192	3.611000
1.361621	2.559944	3.657000
1.444386	2.553412	3.703000
1.469443	2.524047	3.857000
1.556069	2.498303	3.904000
1.581370	2.492906	4.064000
1.606810	2.488905	4.111000
1.632031	2.487979	4.156000
1.656653	2.483746	4.203000
1.681880	2.483624	4.249000
1.706875	2.479477	4.295000
1.731422	2.476078	4.340000
1.755954	2.473706	4.388000
1.780925	2.473182	4.434000
1.806728	2.473394	4.480000
1.831887	2.475221	4.526000
1.857078	2.479315	4.572000
1.882040	2.484922	4.617000
1.907329	2.491277	4.664000
1.932163	2.497817	4.711000
1.956292	2.497116	4.757000
2.040670	2.501608	4.802000
2.065604	2.518228	4.958000
2.152627	2.531103	5.004000
2.177352	2.529801	5.164000
2.202813	2.531123	5.210000
2.227600	2.533991	5.255000
2.251641	2.534244	5.302000
2.276544	2.536515	5.348000
2.301349	2.540284	5.395000
2.326552	2.544797	5.440000
2.351983	2.548224	5.486000
2.377010	2.547240	5.533000
2.402568	2.547058	5.579000
2.427410	2.545922	5.625000
2.451936	2.541360	5.671000
2.476189	2.535877	5.718000
2.501175	2.534051	5.764000
2.527066	2.534762	5.810000
2.552067	2.534782	5.855000
2.750754	2.532471	5.903000
2.776016	2.506464	6.269000
2.801416	2.506998	6.315000
2.826219	2.504304	6.362000
2.851135	2.497878	6.408000
2.875309	2.495117	6.453000
2.900092	2.494451	6.500000
2.925662	2.495465	6.547000
2.950641	2.497126	6.592000
2.976060	2.497036	6.639000
3.000883	2.495627	6.685000
3.026133	2.494936	6.730000
3.050729	2.490203	6.777000
3.075125	2.485256	6.823000
3.100187	2.480744	6.869000
3.125189	2.475372	6.915000
3.150310	2.471945	6.961000
3.234682	2.468225	7.007000
3.259548	2.467333	7.162000
3.458742	2.446865	7.208000
3.483952	2.444331	7.577000
3.508579	2.441025	7.622000
3.533307	2.441458	7.669000
3.558702	2.444371	7.716000
3.583654	2.445269	7.762000
3.608694	2.445401	7.808000
3.634136	2.445618	7.854000
3.659519	2.442917	7.900000
3.684747	2.441308	7.947000
3.710161	2.439258	7.993000
3.735014	2.437991	8.040000
3.826554	2.433429	8.087000
3.851929	2.422571	8.256000
3.939319	2.409585	8.303000
3.964550	2.405213	8.464000
3.989599	2.401827	8.511000
4.014484	2.400225	8.556000
4.040010	2.403511	8.603000
4.065140	2.407862	8.649000
4.089821	2.411299	8.695000
4.113899	2.410589	8.741000
4.139702	2.406046	8.788000
4.164854	2.419043	8.834000
4.190014	2.398708	8.880000
4.215401	2.396489	8.927000
4.240170	2.393168	8.973000
4.265484	2.389195	9.019000
4.290574	2.385187	9.065000
4.315674	2.379571	9.112000
4.339779	2.376882	9.158000
4.423529	2.375300	9.205000
4.449418	2.361844	9.359000
4.534954	2.346573	9.405000
4.560882	2.343581	9.565000
4.585570	2.338820	9.610000
4.609935	2.332057	9.656000
4.634238	2.329286	9.702000
4.659389	2.323327	9.748000
4.684525	2.320319	9.794000
4.709458	2.316594	9.841000
4.735378	2.313101	9.887000
4.760250	2.310705	9.933000
4.785454	2.310290	9.979000
4.810783	2.313232	10.026000
4.835485	2.314056	10.072000
4.859859	2.316442	10.118000
4.884675	2.315649	10.165000
4.910358	2.315244	10.210000
4.935189	2.314840	10.257000
5.019561	2.311873	10.303000
5.044307	2.320809	10.457000
5.131590	2.321082	10.504000
5.156433	2.318393	10.664000
5.181260	2.320340	10.711000
5.205660	2.321988	10.757000
5.230593	2.321335	10.803000
5.256237	2.322993	10.849000
5.281183	2.321032	10.896000
5.306109	2.320582	10.941000
5.331772	2.320819	10.987000
5.356866	2.319192	11.034000
5.382065	2.317924	11.081000
5.406533	2.321775	11.127000
5.431384	2.324646	11.173000
5.456097	2.327917	11.220000
5.481178	2.329873	11.265000
5.506588	2.331905	11.312000
5.531730	2.335893	11.356000
5.730492	2.332910	11.403000
5.755094	2.321765	11.770000
5.779623	2.327315	11.815000
5.803844	2.335822	11.862000
5.828745	2.342474	11.907000
5.854667	2.350860	11.954000
5.879367	2.356810	12.001000
5.904551	2.361591	12.046000
5.929580	2.365797	12.092000
5.955088	2.373045	12.139000
5.979833	2.378273	12.185000
6.004707	2.379025	12.231000
6.029119	2.382609	12.277000
6.053913	2.389626	12.323000
6.079297	2.398507	12.369000
6.104568	2.403562	12.416000
6.129833	2.408318	12.462000
6.213948	2.414966	12.508000
6.238036	2.433595	12.663000
6.437239	2.458005	12.709000
6.462211	2.459391	13.077000
6.486930	2.462016	13.123000
6.512182	2.467493	13.169000
6.537595	2.472066	13.215000
6.562787	2.476911	13.262000
6.587157	2.482913	13.307000
6.612344	2.485305	13.353000
6.636608	2.485536	13.399000
6.661155	2.484779	13.445000
6.686818	2.484810	13.491000
6.712182	2.483725	13.538000
6.805915	2.486157	13.584000
6.831183	2.492694	13.756000
6.918120	2.498473	13.803000
6.943851	2.500102	13.965000
6.969616	2.499829	14.011000
6.993696	2.498937	14.057000
7.018486	2.497337	14.103000
7.042757	2.495206	14.149000
7.068611	2.495378	14.196000
7.093708	2.495247	14.243000
7.118292	2.498250	14.289000
7.143927	2.497276	14.335000
7.169029	2.500102	14.381000
7.194797	2.501066	14.428000
7.219753	2.501515	14.474000
7.244257	2.504302	14.521000
7.268807	2.506745	14.566000
7.293574	2.509178	14.613000
7.319036	2.513967	14.659000
7.403459	2.517587	14.705000
7.428966	2.533318	14.860000
7.514640	2.546375	14.905000
7.539861	2.545300	15.065000
7.564555	2.545547	15.111000
7.588860	2.546426	15.157000
7.614843	2.547899	15.204000
7.639267	2.548686	15.250000
7.664765	2.549500	15.296000
7.689833	2.553522	15.342000
7.715113	2.554376	15.387000
7.740255	2.557793	15.434000
7.765196	2.558918	15.481000
7.790100	2.559872	15.528000
7.814359	2.559588	15.573000
7.839499	2.559452	15.619000
7.864469	2.559422	15.665000
7.889776	2.555572	15.711000
7.914995	2.554285	15.757000
7.998856	2.553018	15.804000
8.023858	2.557813	15.959000
8.109597	2.567503	16.005000
8.134900	2.571571	16.165000
8.159945	2.575444	16.211000
8.185153	2.579586	16.257000
8.210560	2.582932	16.302000
8.235477	2.585345	16.349000
8.260663	2.588036	16.395000
8.285375	2.590832	16.441000
8.310383	2.592211	16.488000
8.335187	2.601527	16.534000
8.360076	2.606983	16.581000
8.385672	2.611259	16.627000
8.410338	2.610764	16.673000
8.435805	2.611798	16.720000
8.461045	2.615038	16.766000
8.486565	2.615670	16.813000
8.510995	2.621610	16.859000
8.709525	2.622524	16.904000
8.734284	2.637058	17.271000
8.759010	2.640570	17.318000
8.784077	2.638316	17.363000
8.809649	2.640398	17.410000
8.834829	2.639363	17.456000
8.859962	2.639939	17.503000
8.884938	2.645241	17.549000
8.910592	2.652459	17.595000
8.934807	2.659374	17.641000
8.959607	2.657342	17.687000
8.984029	2.660420	17.734000
9.009758	2.659688	17.780000
9.035360	2.655628	17.827000
9.060442	2.649638	17.873000
9.085731	2.645291	17.919000
9.110643	2.642976	17.966000
9.194247	2.641117	18.012000
9.218551	2.644073	18.167000
9.418488	2.636874	18.212000
9.443534	2.636722	18.581000
9.468669	2.635686	18.627000
9.494292	2.633866	18.673000
9.519195	2.633007	18.719000
9.544533	2.634018	18.767000
9.570045	2.631188	18.813000
9.595287	2.628205	18.859000
9.619916	2.625408	18.905000
9.644047	2.625269	18.952000
9.668992	2.627644	18.997000
9.694100	2.628377	19.043000
9.785349	2.630530	19.089000
9.809952	2.628286	19.256000
9.898054	2.615558	19.303000
9.922460	2.615305	19.465000
9.947055	2.615083	19.510000
9.972203	2.615842	19.556000
9.997109	2.614736	19.603000
10.022734	2.614716	19.649000
10.047606	2.607730	19.696000
10.072850	2.604954	19.742000
10.098275	2.604721	19.788000
10.122737	2.599547	19.834000
10.147618	2.592688	19.880000
10.172595	2.586859	19.927000
10.197437	2.585465	19.973000
10.223075	2.586411	20.020000
10.248002	2.585703	20.066000
10.272835	2.586351	20.112000
10.297890	2.584922	20.157000
10.381877	2.584118	20.204000
10.405892	2.587486	20.358000
10.492230	2.591335	20.404000
10.517612	2.594683	20.565000
10.543184	2.594873	20.611000
10.567890	2.599336	20.657000
10.593384	2.597492	20.703000
10.618423	2.594329	20.749000
10.643231	2.593873	20.795000
10.667956	2.594066	20.841000
10.692582	2.598911	20.887000
10.717634	2.600583	20.934000
10.742947	2.602874	20.980000
10.768068	2.604974	21.027000
10.793657	2.605866	21.073000
10.818267	2.608441	21.118000
10.843962	2.610489	21.165000
10.868723	2.612373	21.211000
10.893698	2.611665	21.257000
10.977080	2.614017	21.303000
11.002326	2.623078	21.459000
11.088587	2.627857	21.505000
11.113446	2.630000	21.664000
11.139086	2.632072	21.710000
11.164010	2.633918	21.756000
11.189282	2.640418	21.803000
11.213432	2.646215	21.849000
11.238082	2.655718	21.895000
11.262906	2.663816	21.940000
11.287948	2.670478	21.987000
11.312777	2.675553	22.032000
11.338375	2.677120	22.079000
11.363692	2.680133	22.124000
11.388760	2.679576	22.171000
11.414391	2.680275	22.218000
11.438851	2.683646	22.265000
11.463383	2.685036	22.311000
11.488673	2.689120	22.357000
11.687376	2.691607	22.403000
11.712402	2.723862	22.770000
11.737539	2.728725	22.816000
11.762964	2.730419	22.862000
11.787942	2.736040	22.908000
11.813128	2.740892	22.955000
11.837594	2.745381	23.001000
11.862241	2.747716	23.047000
11.887494	2.750658	23.093000
11.912247	2.755687	23.140000
11.937744	2.759044	23.186000
11.963033	2.762416	23.232000
11.988105	2.768001	23.278000
12.013634	2.775563	23.324000
12.038452	2.783524	23.371000
12.063453	2.788795	23.417000
12.088172	2.797911	23.464000
12.171942	2.808500	23.510000
12.197318	2.831434	23.666000
12.396950	2.905509	23.712000
12.422083	2.908971	24.080000
12.447361	2.913433	24.126000
12.472368	2.914287	24.172000
12.496905	2.915706	24.218000
12.522064	2.917815	24.265000
12.546432	2.919864	24.310000
12.571609	2.924310	24.357000
12.597101	2.928893	24.404000
12.622233	2.931125	24.450000
12.647262	2.934663	24.496000
12.672752	2.936893	24.542000
12.762807	2.938453	24.588000
12.787668	2.931135	24.756000
12.875099	2.930437	24.802000
12.900884	2.930291	24.965000
12.925967	2.930210	25.011000
12.951356	2.932281	25.057000
12.976284	2.934279	25.104000
13.001878	2.941622	25.150000
13.027318	2.948810	25.196000
13.051564	2.956870	25.242000
13.075989	2.965879	25.288000
13.100414	2.974222	25.335000
13.126362	2.982792	25.381000
13.151714	2.990374	25.428000
13.176990	2.996995	25.474000
13.201995	3.004759	25.521000
13.227609	3.015756	25.567000
13.253074	3.026810	25.613000
13.278056	3.033507	25.659000
13.360890	3.045318	25.705000
13.386267	3.078860	25.861000
13.471861	3.125702	25.907000
13.497103	3.140595	26.065000
13.522349	3.150637	26.111000
13.547160	3.161308	26.157000
13.572301	3.169285	26.203000
13.597522	3.175913	26.250000
13.621977	3.182988	26.297000
13.647283	3.186279	26.342000
13.671799	3.191668	26.388000
13.696891	3.199720	26.435000
13.722473	3.204992	26.481000
13.747737	3.212140	26.528000
13.772873	3.214910	26.574000
13.797873	3.221102	26.619000
13.823332	3.229447	26.667000
13.847794	3.238860	26.713000
13.872648	3.247614	26.759000
13.957057	3.258740	26.806000
13.981838	3.271951	26.960000
14.067503	3.283398	27.006000
14.092380	3.286956	27.165000
14.117773	3.291433	27.210000
14.141811	3.295154	27.256000
14.166952	3.298681	27.303000
14.192289	3.301432	27.349000
14.217270	3.306551	27.396000
14.242904	3.310533	27.442000
14.268015	3.313708	27.489000
14.293298	3.323640	27.535000
14.318264	3.326022	27.580000
14.343436	3.329411	27.627000
14.368144	3.334683	27.673000
14.392584	3.334305	27.720000
14.417792	3.333730	27.766000
14.443021	3.333220	27.812000
14.467957	3.332392	27.858000
14.666637	3.334114	27.904000
14.692429	3.354239	28.271000
14.717483	3.360582	28.318000
14.742466	3.359376	28.364000
14.767649	3.358396	28.411000
14.791777	3.356953	28.457000
14.816562	3.353314	28.503000
14.842061	3.353581	28.549000
14.867266	3.353073	28.595000
14.892046	3.353123	28.642000
14.917152	3.355455	28.688000
14.942627	3.356762	28.733000
14.967539	3.364212	28.780000
14.992865	3.372685	28.826000
15.017326	3.379010	28.871000
15.042366	3.384058	28.918000
15.067514	3.387515	28.964000
15.151643	3.392219	29.011000
15.177181	3.405276	29.166000
15.376923	3.416742	29.211000
15.402064	3.421607	29.580000
15.426580	3.428133	29.626000
15.450703	3.431651	29.672000
15.475739	3.433944	29.718000
15.500580	3.434999	29.764000
15.526090	3.438405	29.810000
15.551197	3.437662	29.856000
15.576662	3.439913	29.902000
15.601366	3.438889	29.949000
15.626366	3.439984	29.995000
15.651589	3.439702	30.041000
15.742541	3.434503	30.087000
15.767659	3.431289	30.256000
15.855302	3.431701	30.302000
15.880934	3.430032	30.465000
15.906125	3.428462	30.511000
15.931005	3.427569	30.558000
15.956123	3.425298	30.603000
15.980508	3.417610	30.650000
16.005527	3.408288	30.696000
16.030627	3.401778	30.742000
16.055745	3.396589	30.789000
16.080758	3.392899	30.835000
16.106125	3.388276	30.881000
16.131333	3.386177	30.927000
16.156814	3.383622	30.973000
16.182109	3.377090	31.020000
16.206477	3.370732	31.067000
16.231562	3.365325	31.113000
16.255951	3.363606	31.159000
16.340198	3.361985	31.205000
16.365485	3.362440	31.360000
16.451274	3.351725	31.406000
16.476989	3.346697	31.565000
16.502335	3.341171	31.612000
16.526507	3.332413	31.658000
16.551561	3.330051	31.704000
16.576732	3.330940	31.751000
16.601734	3.330183	31.797000
16.626693	3.330506	31.843000
16.652202	3.329290	31.890000
16.677245	3.326104	31.936000
16.702642	3.323499	31.982000
16.727105	3.316731	32.027000
16.751519	3.315399	32.073000
16.776298	3.308367	32.120000
16.801450	3.303785	32.165000
16.826461	3.297712	32.212000
16.851554	3.289905	32.258000
16.936010	3.284838	32.305000
16.960895	3.258335	32.458000
17.047205	3.257145	32.505000
17.071414	3.257732	32.664000
17.096310	3.256797	32.711000
17.121481	3.252940	32.756000
17.146694	3.247774	32.803000
17.171971	3.244443	32.848000
17.197063	3.240036	32.895000
17.222298	3.239510	32.941000
17.247388	3.235578	32.988000
17.271862	3.233975	33.034000
17.296946	3.233873	33.080000
17.321635	3.231397	33.127000
17.347267	3.229916	33.172000
17.372236	3.230199	33.219000
17.397290	3.231710	33.266000
17.422861	3.233631	33.311000
17.447540	3.236826	33.358000
17.646686	3.239884	33.404000
17.671469	3.262110	33.771000
17.696031	3.265265	33.817000
17.720648	3.270572	33.863000
17.745735	3.275963	33.910000
17.770848	3.278722	33.955000
17.795654	3.279595	34.001000
17.821144	3.283469	34.047000
17.846382	3.288062	34.094000
17.872003	3.288970	34.140000
17.896181	3.293069	34.186000
17.920904	3.294670	34.233000
17.945678	3.296648	34.279000
17.970972	3.301084	34.325000
17.996146	3.299776	34.371000
18.021511	3.305234	34.417000
18.046408	3.307958	34.463000
18.129620	3.312965	34.509000
18.154777	3.335521	34.664000
18.354080	3.369404	34.711000
18.379149	3.371868	35.079000
18.404086	3.371392	35.125000
18.429563	3.377160	35.172000
18.454684	3.387039	35.218000
18.479755	3.394962	35.264000
18.505006	3.402883	35.309000
18.529778	3.406451	35.355000
18.554570	3.409104	35.402000
18.579302	3.410523	35.448000
18.604321	3.410351	35.495000
18.629665	3.410801	35.542000
18.721709	3.407847	35.588000
18.747287	3.409165	35.757000
18.834273	3.423006	35.803000
18.859486	3.429647	35.965000
18.884273	3.430945	36.010000
18.908547	3.434240	36.057000
18.933563	3.437371	36.102000
18.958626	3.439783	36.150000
18.984362	3.439994	36.196000
19.008989	3.438436	36.241000
19.034105	3.439984	36.287000
19.058880	3.440535	36.332000
19.083148	3.441963	36.378000
19.107095	3.444718	36.424000
19.132341	3.444996	36.469000
19.157353	3.447863	36.515000
19.182812	3.451341	36.562000
19.208087	3.451713	36.608000
19.233079	3.452325	36.654000
19.317367	3.451624	36.701000
19.341961	3.459866	36.856000
19.430014	3.463182	36.902000
19.454520	3.463827	37.064000
19.479338	3.461283	37.111000
19.504551	3.460851	37.156000
19.529620	3.456238	37.202000
19.554699	3.453794	37.249000
19.580256	3.453081	37.295000
19.604941	3.452527	37.341000
19.630623	3.454950	37.387000
19.654570	3.456908	37.434000
19.679440	3.458941	37.480000
19.704893	3.460517	37.527000
19.729438	3.460208	37.573000
19.755226	3.459977	37.619000
19.780110	3.458610	37.665000
19.805564	3.458931	37.711000
19.830585	3.460699	37.757000
19.913664	3.463964	37.804000
19.938820	3.470461	37.959000
20.025097	3.453825	38.005000
20.050359	3.450428	38.165000
20.075900	3.446627	38.211000
20.100632	3.444466	38.257000
20.125979	3.442947	38.303000
20.150772	3.440221	38.350000
20.176150	3.438284	38.396000
20.200365	3.433742	38.442000
20.225524	3.431938	38.488000
20.250250	3.429840	38.535000
20.276110	3.427649	38.581000
20.300759	3.423909	38.627000
20.326329	3.421688	38.673000
20.351191	3.417827	38.720000
20.376220	3.410161	38.765000
20.401571	3.402518	38.812000
20.426299	3.398930	38.857000
20.624434	3.391733	38.904000
20.649152	3.354045	39.271000
20.674438	3.347974	39.317000
20.699726	3.340725	39.363000
20.724619	3.335460	39.410000
20.749905	3.330485	39.455000
20.775076	3.325890	39.502000
20.800082	3.321717	39.548000
20.824882	3.314864	39.594000
20.849742	3.310380	39.641000
20.874853	3.302780	39.687000
20.899711	3.301220	39.733000
20.925274	3.297753	39.780000
20.950514	3.292761	39.826000
20.975987	3.285613	39.872000
21.001265	3.278651	39.919000
21.026258	3.272909	39.965000
21.108722	3.263813	40.011000
21.133672	3.240425	40.165000
21.333020	3.220747	40.212000
21.358187	3.217314	40.579000
21.383859	3.210500	40.626000
21.408285	3.203049	40.672000
21.433730	3.199092	40.718000
21.458919	3.192703	40.764000
21.484220	3.187091	40.810000
21.508393	3.184034	40.857000
21.533642	3.179777	40.902000
21.558028	3.174581	40.949000
21.583589	3.169172	40.995000
21.608596	3.163500	41.041000
21.699995	3.156981	41.088000
21.724280	3.154821	41.256000
21.812759	3.152951	41.303000
21.837771	3.148983	41.464000
21.862821	3.145379	41.512000
21.887840	3.140279	41.558000
21.912552	3.137266	41.603000
21.937982	3.134522	41.649000
21.963430	3.132626	41.695000
21.989004	3.130362	41.742000
22.013532	3.128340	41.788000
22.038764	3.126373	41.835000
22.063693	3.122057	41.882000
22.088618	3.120045	41.928000
22.113269	3.119630	41.974000
22.127041	3.116991	42.021000
22.163860	3.113994	42.067000
22.188561	3.111042	42.112000
22.214129	3.110309	42.159000
