Sample	2mm tape 
date	07/01/2025
	
Temperature (K)	77.00
Angle (deg.)	0.000000
field / T	0.500000
	
		
Approx. trace time (s)	120.0	
		
Current / A	V1  -sample/ uV	time/s
-0.018363	1.479912	0.000000
-0.018320	1.481328	0.045000
-0.019381	1.496107	0.091000
-0.018228	1.474837	0.137000
-0.019246	1.495616	0.183000
-0.018185	1.498870	0.229000
-0.019050	1.496508	0.275000
-0.018357	1.499646	0.432000
-0.018050	1.485482	0.478000
-0.018504	1.498128	0.524000
-0.017897	1.503214	0.570000
-0.018412	1.512402	0.616000
-0.018535	1.512172	0.662000
0.030263	1.516556	0.707000
0.056576	1.517972	0.864000
0.080585	1.531265	0.909000
0.107156	1.539627	0.956000
0.130650	1.544385	1.002000
0.157560	1.542920	1.048000
0.180824	1.556129	1.094000
0.206575	1.552165	1.140000
0.230095	1.558946	1.186000
0.256171	1.560525	1.232000
0.281262	1.562259	1.278000
0.305619	1.565902	1.325000
0.505427	1.567562	1.371000
0.530189	1.556427	1.738000
0.626671	1.555055	1.785000
0.652083	1.558886	1.963000
0.677078	1.554895	2.009000
0.702368	1.552286	2.055000
0.726361	1.555543	2.102000
0.751516	1.556883	2.148000
0.776376	1.552225	2.194000
0.801658	1.552706	2.240000
0.826550	1.549737	2.286000
0.852092	1.543955	2.332000
0.877136	1.549223	2.378000
0.902249	1.541486	2.424000
0.985669	1.535297	2.471000
1.010523	1.522867	2.627000
1.035616	1.529708	2.673000
1.060430	1.541033	2.718000
1.085957	1.536945	2.764000
1.110870	1.535853	2.810000
1.135589	1.537678	2.857000
1.337778	1.528987	2.902000
1.363039	1.498059	3.276000
1.388144	1.492059	3.322000
1.412869	1.500302	3.368000
1.437113	1.499696	3.414000
1.461648	1.494076	3.459000
1.486611	1.495332	3.506000
1.578683	1.475478	3.552000
1.603389	1.482910	3.720000
1.628062	1.467610	3.765000
1.652605	1.459588	3.812000
1.677415	1.463357	3.858000
1.702920	1.460464	3.904000
1.727406	1.454914	3.950000
1.818143	1.452120	3.996000
1.842440	1.440920	4.164000
1.867706	1.439244	4.209000
1.892972	1.429199	4.255000
1.918236	1.429675	4.301000
1.943633	1.423819	4.348000
1.968439	1.421311	4.394000
1.993775	1.418739	4.440000
2.018513	1.413283	4.486000
2.042974	1.409490	4.533000
2.067805	1.410617	4.579000
2.093475	1.406738	4.626000
2.178111	1.396083	4.671000
2.203990	1.382744	4.828000
2.228943	1.380983	4.875000
2.253653	1.374301	4.920000
2.277575	1.371233	4.966000
2.302552	1.368872	5.012000
2.327741	1.360399	5.058000
2.413686	1.353442	5.104000
2.439101	1.336536	5.263000
2.464071	1.341511	5.309000
2.489152	1.335910	5.355000
2.514256	1.338848	5.401000
2.538564	1.330735	5.447000
2.563396	1.329295	5.493000
2.587901	1.328273	5.539000
2.612959	1.321647	5.585000
2.637907	1.310509	5.632000
2.663234	1.316485	5.677000
2.688192	1.305782	5.723000
2.772000	1.319244	5.769000
2.796750	1.328333	5.925000
2.821426	1.320321	5.971000
2.846440	1.316836	6.017000
2.871791	1.329850	6.063000
2.896747	1.329539	6.108000
2.921779	1.323213	6.155000
3.009454	1.342646	6.199000
3.035217	1.350264	6.363000
3.059991	1.360128	6.409000
3.084388	1.359502	6.455000
3.108857	1.366680	6.501000
3.133358	1.373386	6.546000
3.158928	1.379777	6.593000
3.183905	1.384402	6.639000
3.209421	1.394836	6.686000
3.234870	1.406767	6.732000
3.260381	1.402858	6.778000
3.285147	1.416952	6.825000
3.484200	1.462575	6.871000
3.509281	1.469592	7.239000
3.605813	1.470978	7.285000
3.631164	1.479711	7.464000
3.655537	1.470808	7.510000
3.680519	1.470283	7.556000
3.705498	1.479611	7.602000
3.731130	1.479751	7.649000
3.756064	1.482709	7.695000
3.780855	1.487694	7.741000
3.806322	1.490287	7.788000
3.831440	1.491927	7.834000
3.856463	1.488770	7.880000
3.880815	1.495676	7.926000
3.965019	1.492599	7.972000
3.989898	1.479101	8.128000
4.015421	1.479321	8.174000
4.040678	1.481764	8.220000
4.066005	1.478796	8.266000
4.090421	1.483540	8.312000
4.115007	1.475672	8.357000
4.316597	1.484546	8.404000
4.341186	1.474326	8.776000
4.365822	1.461559	8.822000
4.390706	1.465819	8.867000
4.415899	1.469177	8.914000
4.441324	1.460914	8.961000
4.466448	1.465078	9.007000
4.557243	1.468846	9.053000
4.580998	1.458200	9.220000
4.606200	1.444709	9.266000
4.631580	1.458971	9.312000
4.656583	1.452330	9.358000
4.682364	1.461899	9.405000
4.707255	1.472935	9.451000
4.796661	1.471058	9.497000
4.821981	1.479901	9.663000
4.847376	1.479090	9.709000
4.872192	1.475377	9.755000
4.897346	1.475317	9.802000
4.922484	1.474856	9.848000
4.946083	1.477099	9.894000
4.971465	1.477158	9.940000
4.996487	1.481087	9.986000
5.022016	1.480012	10.033000
5.046616	1.485742	10.078000
5.071606	1.478975	10.125000
5.156686	1.500852	10.171000
5.180741	1.492499	10.326000
5.205723	1.498229	10.373000
5.230921	1.513859	10.420000
5.255978	1.507798	10.466000
5.281189	1.508964	10.511000
5.306580	1.514985	10.558000
5.392638	1.511922	10.604000
5.417822	1.525149	10.763000
5.443114	1.527892	10.809000
5.467472	1.530091	10.855000
5.492500	1.531526	10.902000
5.517084	1.539435	10.948000
5.542301	1.538543	10.994000
5.567490	1.538683	11.040000
5.592258	1.549213	11.087000
5.617616	1.550931	11.132000
5.642697	1.551071	11.178000
5.667504	1.555283	11.224000
5.751206	1.568786	11.270000
5.775968	1.568451	11.426000
5.800877	1.582503	11.472000
5.825981	1.585157	11.518000
5.851523	1.580235	11.563000
5.876823	1.584604	11.609000
5.901450	1.597542	11.656000
5.989033	1.607125	11.702000
6.013657	1.634081	11.863000
6.038676	1.641681	11.909000
6.063351	1.646649	11.957000
6.088812	1.651106	12.003000
6.113334	1.658012	12.049000
6.138865	1.668972	12.095000
6.164460	1.664054	12.141000
6.188918	1.679781	12.187000
6.214607	1.692339	12.234000
6.239124	1.697900	12.280000
6.264379	1.708016	12.326000
6.463242	1.750638	12.373000
6.487929	1.756029	12.740000
6.583334	1.762199	12.786000
6.608746	1.783570	12.963000
6.634086	1.785101	13.010000
6.659170	1.790175	13.056000
6.684526	1.787844	13.102000
6.709297	1.788154	13.148000
6.734585	1.784205	13.194000
6.759380	1.781863	13.240000
6.783736	1.779351	13.286000
6.808314	1.791997	13.332000
6.833362	1.786858	13.378000
6.858928	1.785321	13.425000
6.943253	1.796427	13.470000
6.968981	1.786897	13.626000
6.993180	1.784125	13.673000
7.017766	1.784535	13.718000
7.042081	1.784856	13.764000
7.067352	1.786346	13.810000
7.092665	1.783089	13.856000
7.294409	1.778705	13.902000
7.319491	1.781812	14.276000
7.344459	1.785050	14.322000
7.369742	1.777028	14.368000
7.394744	1.780947	14.414000
7.419850	1.779811	14.460000
7.444680	1.780967	14.506000
7.536226	1.779350	14.552000
7.561344	1.776133	14.721000
7.586320	1.776949	14.767000
7.611567	1.756069	14.813000
7.636433	1.775177	14.859000
7.661949	1.771138	14.905000
7.686706	1.767114	14.952000
7.776216	1.775317	14.998000
7.801346	1.773580	15.164000
7.826360	1.765548	15.209000
7.851439	1.764192	15.256000
7.876146	1.756330	15.302000
7.900917	1.761859	15.349000
7.926042	1.755519	15.394000
7.951038	1.763436	15.440000
7.976086	1.766353	15.486000
8.001191	1.760944	15.533000
8.026701	1.763651	15.579000
8.051345	1.743127	15.625000
8.135497	1.740248	15.671000
8.160284	1.736635	15.828000
8.185627	1.733432	15.874000
8.210948	1.727630	15.920000
8.236142	1.718924	15.966000
8.261339	1.727400	16.013000
8.286153	1.725031	16.058000
8.372650	1.724358	16.104000
8.397364	1.718666	16.264000
8.421590	1.703763	16.310000
8.446475	1.704534	16.356000
8.471694	1.702363	16.402000
8.497088	1.701494	16.448000
8.521776	1.702789	16.494000
8.546897	1.697881	16.540000
8.572267	1.690481	16.586000
8.597091	1.684757	16.632000
8.621329	1.682181	16.678000
8.646220	1.679231	16.725000
8.730856	1.670457	16.771000
8.756182	1.663789	16.927000
8.781955	1.656968	16.973000
8.806328	1.651186	17.019000
8.831490	1.643136	17.065000
8.855386	1.638279	17.111000
8.880072	1.635484	17.156000
8.966947	1.635266	17.203000
8.992189	1.631488	17.364000
9.017099	1.630404	17.409000
9.042130	1.621009	17.455000
9.067306	1.611214	17.501000
9.092080	1.612108	17.546000
9.116123	1.601939	17.592000
9.141064	1.606436	17.638000
9.165733	1.602597	17.684000
9.191224	1.599890	17.731000
9.216536	1.591320	17.776000
9.241662	1.583823	17.823000
9.440916	1.578729	17.869000
9.466022	1.576806	18.237000
9.491443	1.585507	18.283000
9.574188	1.572779	18.329000
9.599011	1.596417	18.484000
9.624366	1.605321	18.530000
9.649311	1.594772	18.576000
9.674916	1.609928	18.622000
9.699865	1.612317	18.669000
9.725147	1.622421	18.715000
9.750353	1.629973	18.761000
9.774939	1.641981	18.807000
9.799069	1.640407	18.853000
9.824142	1.646539	18.899000
9.918961	1.663030	18.946000
9.944278	1.665198	19.121000
9.969341	1.672914	19.167000
9.994491	1.674000	19.212000
10.020149	1.675293	19.258000
10.044501	1.673639	19.305000
10.069247	1.683154	19.351000
10.273822	1.682429	19.397000
10.299524	1.715826	19.776000
10.324238	1.710694	19.822000
10.349708	1.706752	19.869000
10.374747	1.711119	19.915000
10.400207	1.716006	19.961000
10.424490	1.712553	20.008000
10.515310	1.717310	20.054000
10.540813	1.724126	20.221000
10.565625	1.719469	20.267000
10.590956	1.723701	20.313000
10.615240	1.716990	20.359000
10.639646	1.718863	20.405000
10.664849	1.716216	20.451000
10.755030	1.718645	20.498000
10.779981	1.712553	20.663000
10.804137	1.723082	20.709000
10.829263	1.719359	20.756000
10.854899	1.719859	20.802000
10.879574	1.724940	20.848000
10.905195	1.721102	20.894000
10.929987	1.732697	20.941000
10.955243	1.728238	20.987000
10.980319	1.736190	21.033000
11.005444	1.734555	21.080000
11.029569	1.746298	21.126000
11.113851	1.750168	21.172000
11.139355	1.755658	21.327000
11.164403	1.756924	21.373000
11.189564	1.753136	21.419000
11.213953	1.759747	21.465000
11.238472	1.753236	21.511000
11.263466	1.767879	21.557000
11.350120	1.770502	21.603000
11.375127	1.792317	21.763000
11.400396	1.804719	21.809000
11.425649	1.799404	21.855000
11.450419	1.802692	21.902000
11.476129	1.801191	21.948000
11.500797	1.808147	21.994000
11.525385	1.802498	22.040000
11.549836	1.807847	22.086000
11.574433	1.816290	22.132000
11.599664	1.820109	22.178000
11.625045	1.823902	22.224000
11.709560	1.843070	22.270000
11.734581	1.830554	22.426000
11.759361	1.837480	22.472000
11.784352	1.836899	22.518000
11.808651	1.844887	22.564000
11.834158	1.844787	22.610000
11.859192	1.853801	22.657000
11.946340	1.857620	22.702000
11.971069	1.854212	22.863000
11.996065	1.852829	22.908000
12.021588	1.863770	22.955000
12.046364	1.860738	23.001000
12.071348	1.857540	23.048000
12.095197	1.858946	23.094000
12.120514	1.856073	23.139000
12.145232	1.872629	23.186000
12.170139	1.868810	23.231000
12.195927	1.873705	23.277000
12.220750	1.876247	23.324000
12.420113	1.900385	23.369000
12.444931	1.899599	23.738000
12.542268	1.896110	23.783000
12.567294	1.913342	23.963000
12.592002	1.906856	24.009000
12.616393	1.915178	24.055000
12.641086	1.915359	24.101000
12.666137	1.920689	24.147000
12.691499	1.919592	24.193000
12.716875	1.913262	24.239000
12.741438	1.919222	24.286000
12.767444	1.927110	24.332000
12.792030	1.923461	24.378000
12.817283	1.930428	24.425000
12.900696	1.932115	24.471000
12.925517	1.925529	24.626000
12.950863	1.925289	24.673000
12.976644	1.914914	24.719000
13.001347	1.920775	24.765000
13.026429	1.911326	24.810000
13.051475	1.919749	24.857000
13.253160	1.923297	24.903000
13.278550	1.937591	25.276000
13.303489	1.940939	25.323000
13.327587	1.951083	25.368000
13.352306	1.953926	25.413000
13.376954	1.960328	25.459000
13.401847	1.965289	25.506000
13.494016	1.980374	25.552000
13.518952	1.972018	25.721000
13.543586	1.976267	25.767000
13.568295	1.980894	25.813000
13.593542	1.988530	25.859000
13.618788	1.978055	25.905000
13.643886	1.989764	25.952000
13.732651	1.988884	25.998000
13.757934	1.994876	26.163000
13.783291	1.995556	26.209000
13.808428	1.997235	26.256000
13.833852	1.986516	26.302000
13.858846	1.982993	26.348000
13.884604	1.982377	26.395000
13.908783	1.982329	26.441000
13.933306	1.980744	26.487000
13.957973	1.979045	26.532000
13.982957	1.974317	26.578000
14.008277	1.958234	26.624000
14.092813	1.947445	26.671000
14.118573	1.943976	26.826000
14.143220	1.942315	26.873000
14.167698	1.938496	26.920000
14.192546	1.936004	26.966000
14.217786	1.928182	27.012000
14.242822	1.922987	27.058000
14.329211	1.911336	27.104000
14.354296	1.897513	27.264000
14.379488	1.891823	27.310000
14.405092	1.873230	27.356000
14.429731	1.875167	27.402000
14.454055	1.864482	27.449000
14.478975	1.864702	27.494000
14.504482	1.856269	27.541000
14.529114	1.849982	27.587000
14.554508	1.838181	27.633000
14.579430	1.833577	27.679000
14.604787	1.822296	27.726000
14.688915	1.795196	27.771000
14.713480	1.774681	27.928000
14.738408	1.780471	27.974000
14.763622	1.764166	28.019000
14.788632	1.767484	28.066000
14.813914	1.760327	28.112000
14.838735	1.755008	28.158000
14.925469	1.749613	28.204000
14.950569	1.728870	28.364000
14.974677	1.711938	28.410000
15.000232	1.714447	28.456000
15.024594	1.712449	28.501000
15.050074	1.700986	28.547000
15.075033	1.695998	28.593000
15.100605	1.690476	28.640000
15.125826	1.681319	28.686000
15.150985	1.683628	28.732000
15.176124	1.672581	28.778000
15.200039	1.669396	28.824000
15.399695	1.642515	28.870000
15.424054	1.641886	29.239000
15.521804	1.627949	29.285000
15.545750	1.616434	29.464000
15.570733	1.611987	29.509000
15.596398	1.611488	29.556000
15.621762	1.606470	29.602000
15.647081	1.600879	29.648000
15.671952	1.598700	29.695000
15.697063	1.593027	29.740000
15.722307	1.579390	29.787000
15.746642	1.566832	29.833000
15.771103	1.578725	29.878000
15.796184	1.571859	29.925000
15.880911	1.558815	29.972000
15.906059	1.551299	30.127000
15.931966	1.542105	30.174000
15.956789	1.537916	30.221000
15.982058	1.535456	30.267000
16.006385	1.536762	30.313000
16.030706	1.535236	30.359000
16.232601	1.531634	30.406000
16.257035	1.513757	30.775000
16.281923	1.508893	30.822000
16.306952	1.509928	30.868000
16.332010	1.499704	30.914000
16.357250	1.509063	30.960000
16.382371	1.510725	31.006000
16.472759	1.503359	31.052000
16.498101	1.507572	31.222000
16.523410	1.507823	31.268000
16.547892	1.508478	31.313000
16.573422	1.507202	31.358000
16.598316	1.513332	31.405000
16.623365	1.511391	31.451000
16.713075	1.512972	31.498000
16.737986	1.516881	31.664000
16.763732	1.515384	31.709000
16.788255	1.528227	31.756000
16.813494	1.527756	31.802000
16.837575	1.529051	31.848000
16.862316	1.524849	31.894000
16.887453	1.512226	31.940000
16.912627	1.520509	31.986000
16.937937	1.522026	32.033000
16.963348	1.513563	32.079000
16.988381	1.511271	32.125000
17.072368	1.515555	32.170000
17.096865	1.512718	32.328000
17.121929	1.514088	32.373000
17.147307	1.516811	32.419000
17.172762	1.498244	32.466000
17.197417	1.514969	32.512000
17.222691	1.527362	32.558000
17.309359	1.525365	32.603000
17.334080	1.513453	32.763000
17.358779	1.520119	32.809000
17.382993	1.538173	32.856000
17.408099	1.543166	32.901000
17.433168	1.547643	32.947000
17.458533	1.545792	32.993000
17.483695	1.546438	33.039000
17.508282	1.545903	33.085000
17.533946	1.545614	33.132000
17.558076	1.537073	33.178000
17.583203	1.536938	33.224000
17.666924	1.565117	33.270000
17.692241	1.558491	33.426000
17.717625	1.559854	33.472000
17.742871	1.562658	33.518000
17.768294	1.557277	33.564000
17.792767	1.567131	33.610000
17.817322	1.569209	33.657000
17.904229	1.565177	33.703000
17.929469	1.579400	33.864000
17.954129	1.587015	33.909000
17.979541	1.593402	33.957000
18.004873	1.590749	34.003000
18.029731	1.584307	34.048000
18.055253	1.585512	34.094000
18.080336	1.591153	34.141000
18.105277	1.590109	34.187000
18.129312	1.591554	34.233000
18.154272	1.588775	34.279000
18.179310	1.590698	34.325000
18.378333	1.597315	34.372000
18.403898	1.606949	34.739000
18.499728	1.601388	34.786000
18.525058	1.596351	34.964000
18.550598	1.592307	35.009000
18.575325	1.591413	35.055000
18.600491	1.588474	35.102000
18.625158	1.588564	35.148000
18.649962	1.580019	35.193000
18.674473	1.583263	35.240000
18.699970	1.560045	35.286000
18.724815	1.575556	35.333000
18.750297	1.575052	35.379000
18.775049	1.578446	35.425000
18.860618	1.563457	35.472000
18.885547	1.555532	35.628000
18.910036	1.547722	35.674000
18.934039	1.555107	35.720000
18.959049	1.546538	35.766000
18.984523	1.543819	35.812000
19.009323	1.536808	35.858000
19.210595	1.537241	35.903000
19.235728	1.514859	36.275000
19.260951	1.515664	36.322000
19.286262	1.513773	36.369000
19.310884	1.508839	36.414000
19.336118	1.511571	36.460000
19.360313	1.504679	36.505000
19.451827	1.517697	36.552000
19.477050	1.513363	36.721000
19.502628	1.522166	36.768000
19.527790	1.519084	36.813000
19.552697	1.512728	36.859000
19.577530	1.516901	36.906000
19.602056	1.508398	36.952000
19.692093	1.509109	36.998000
19.716812	1.508608	37.163000
19.740992	1.513333	37.209000
19.765660	1.513823	37.255000
19.790500	1.515695	37.300000
19.815992	1.511080	37.346000
19.840673	1.507252	37.392000
19.866382	1.514078	37.439000
19.891234	1.512407	37.485000
19.915770	1.504860	37.531000
19.940286	1.505761	37.576000
19.964761	1.503158	37.623000
20.050044	1.517321	37.669000
20.075117	1.516325	37.826000
20.100724	1.517481	37.872000
20.125520	1.520569	37.917000
20.150810	1.521885	37.964000
20.175588	1.532954	38.010000
20.200388	1.533223	38.057000
20.287207	1.536427	38.103000
20.311907	1.544189	38.263000
20.336944	1.550694	38.309000
20.362113	1.550824	38.356000
20.387359	1.560169	38.401000
20.412520	1.562313	38.448000
20.437701	1.555441	38.494000
20.462367	1.560830	38.540000
20.486018	1.561984	38.585000
20.511032	1.568255	38.631000
20.535567	1.566532	38.677000
20.560634	1.570055	38.722000
20.645788	1.584208	38.768000
20.670925	1.590280	38.925000
20.695809	1.597186	38.971000
20.719709	1.590049	39.017000
20.744945	1.603437	39.063000
20.769559	1.605366	39.108000
20.794888	1.607885	39.154000
20.882800	1.611647	39.201000
20.908270	1.604831	39.364000
20.921348	1.611587	39.409000
20.958489	1.619739	39.456000
20.984029	1.629014	39.502000
21.008634	1.632521	39.548000
21.033826	1.632071	39.594000
21.058361	1.630168	39.641000
21.083059	1.632161	39.687000
21.107852	1.639758	39.733000
21.133809	1.638273	39.780000
21.159124	1.639307	39.826000
21.358471	1.642395	39.873000
21.383302	1.644633	40.241000
21.479071	1.634124	40.287000
21.504030	1.637268	40.463000
21.529393	1.642234	40.509000
21.554015	1.638851	40.555000
21.578506	1.633144	40.602000
21.603408	1.633485	40.648000
21.628881	1.637837	40.695000
21.653654	1.630118	40.741000
21.679420	1.640381	40.787000
21.704113	1.640861	40.834000
21.729311	1.640901	40.880000
21.754472	1.641705	40.926000
21.838382	1.630327	40.972000
21.863243	1.644673	41.128000
21.888301	1.643659	41.174000
21.913430	1.644134	41.220000
21.939064	1.653004	41.267000
21.964223	1.647757	41.313000
21.989287	1.658517	41.359000
22.189531	1.667106	41.406000
22.215178	1.703102	41.776000
22.240255	1.691129	41.822000
22.265224	1.711702	41.868000
22.289641	1.723770	41.915000
22.314005	1.734440	41.961000
22.338963	1.739777	42.006000
22.430909	1.778730	42.053000
22.456606	1.781387	42.221000
22.481266	1.796101	42.268000
22.506400	1.807661	42.314000
22.530976	1.823532	42.360000
22.556062	1.827996	42.406000
22.581045	1.837860	42.452000
22.670387	1.857174	42.498000
22.695014	1.893183	42.663000
22.720292	1.903513	42.710000
22.746011	1.912411	42.756000
22.771178	1.916985	42.802000
22.796372	1.931669	42.848000
22.820733	1.934002	42.894000
22.845700	1.944821	42.940000
22.870573	1.962308	42.986000
22.894962	1.968391	43.032000
22.920521	1.984811	43.078000
22.945147	1.995320	43.125000
23.030153	2.047084	43.171000
23.055289	2.053679	43.326000
23.079788	2.062714	43.373000
23.105049	2.074297	43.418000
23.128929	2.090109	43.465000
23.153835	2.102163	43.510000
23.179323	2.113536	43.556000
23.266356	2.123571	43.603000
