Sample	2mm tape 
date	08/01/2025
	
Temperature (K)	77.00
Angle (deg.)	0.000000
field / T	0.150000
	
		
Approx. trace time (s)	120.0	
		
Current / A	V1  -sample/ uV	time/s
-0.016197	2.334673	0.000000
-0.016031	2.340278	0.045000
-0.016074	2.344545	0.091000
-0.016050	2.349165	0.136000
-0.016001	2.352248	0.182000
-0.016092	2.356464	0.229000
-0.016227	2.366321	0.383000
-0.016141	2.373793	0.429000
-0.006365	2.372241	0.585000
-0.016178	2.374606	0.631000
-0.017044	2.370779	0.676000
-0.016387	2.370456	0.722000
-0.016994	2.367125	0.769000
-0.016816	2.366922	0.815000
-0.017516	2.366750	0.861000
-0.016712	2.365704	0.907000
-0.017528	2.365664	0.954000
-0.016681	2.362191	1.000000
-0.017087	2.359715	1.046000
-0.017209	2.357142	1.092000
-0.015768	2.353133	1.139000
0.016408	2.351491	1.185000
0.041955	2.348544	1.232000
0.066743	2.347699	1.278000
0.151326	2.346562	1.324000
0.175381	2.340891	1.478000
0.259903	2.336311	1.524000
0.284337	2.333925	1.680000
0.309871	2.332990	1.726000
0.334806	2.333622	1.772000
0.359767	2.334461	1.819000
0.385283	2.338878	1.865000
0.410905	2.340178	1.911000
0.435568	2.344323	1.957000
0.460595	2.345031	2.003000
0.485092	2.346370	2.050000
0.509939	2.349034	2.096000
0.534707	2.352941	2.142000
0.559983	2.355226	2.189000
0.585236	2.361438	2.235000
0.610032	2.364982	2.280000
0.635645	2.366781	2.327000
0.660799	2.369349	2.373000
0.744670	2.374839	2.420000
0.768978	2.391045	2.575000
0.854350	2.410500	2.621000
0.879670	2.417770	2.778000
0.904672	2.422333	2.824000
0.930051	2.428102	2.871000
0.955181	2.435309	2.917000
0.980482	2.440663	2.964000
1.005563	2.446226	3.010000
1.029766	2.451783	3.056000
1.055062	2.458058	3.103000
1.079979	2.462499	3.149000
1.105435	2.464230	3.195000
1.130388	2.465652	3.241000
1.156076	2.467960	3.288000
1.181093	2.469666	3.334000
1.206395	2.469998	3.380000
1.231561	2.471765	3.427000
1.256115	2.474411	3.473000
1.455308	2.477645	3.519000
1.479984	2.497688	3.888000
1.505273	2.500969	3.934000
1.530287	2.505138	3.980000
1.555225	2.509281	4.026000
1.580557	2.515757	4.072000
1.605130	2.520623	4.118000
1.630476	2.525246	4.164000
1.655140	2.528936	4.210000
1.679871	2.531440	4.256000
1.704627	2.534276	4.302000
1.729474	2.535079	4.348000
1.754868	2.537532	4.394000
1.780029	2.541000	4.440000
1.805148	2.543180	4.485000
1.830008	2.546455	4.532000
1.855378	2.549141	4.579000
1.937842	2.550731	4.625000
1.963279	2.557998	4.779000
2.162323	2.603802	4.826000
2.187590	2.611413	5.193000
2.212407	2.623805	5.239000
2.237844	2.634945	5.285000
2.263139	2.642421	5.332000
2.287348	2.650418	5.378000
2.311524	2.665618	5.423000
2.336895	2.676147	5.470000
2.361701	2.686666	5.516000
2.387549	2.697651	5.562000
2.412392	2.709019	5.608000
2.438117	2.719265	5.655000
2.532114	2.730628	5.701000
2.557386	2.770931	5.875000
2.641226	2.800648	5.921000
2.665928	2.807629	6.078000
2.691371	2.813734	6.124000
2.716249	2.820038	6.170000
2.742232	2.826933	6.217000
2.766999	2.830800	6.263000
2.792497	2.832241	6.310000
2.817439	2.844171	6.356000
2.841652	2.843848	6.402000
2.866825	2.843197	6.448000
2.891516	2.847292	6.495000
2.917221	2.852264	6.541000
2.942616	2.855438	6.588000
2.967831	2.858063	6.634000
2.993164	2.857643	6.681000
3.018520	2.860648	6.727000
3.043583	2.861070	6.773000
3.127166	2.862287	6.819000
3.152168	2.858073	6.974000
3.237179	2.846573	7.021000
3.262672	2.843989	7.178000
3.287432	2.838089	7.224000
3.312459	2.837033	7.270000
3.337888	2.834516	7.317000
3.362834	2.833439	7.363000
3.387200	2.832994	7.409000
3.411546	2.830396	7.455000
3.436579	2.826913	7.501000
3.461614	2.824881	7.547000
3.487333	2.821772	7.593000
3.512493	2.818638	7.639000
3.537334	2.817723	7.685000
3.562777	2.814645	7.731000
3.587179	2.810637	7.777000
3.611654	2.807417	7.824000
3.636459	2.806658	7.870000
3.722837	2.809014	7.916000
3.748078	2.812391	8.076000
3.832806	2.812597	8.122000
3.858538	2.809641	8.278000
3.883754	2.811072	8.324000
3.908469	2.809125	8.371000
3.932717	2.807103	8.417000
3.957609	2.807876	8.462000
3.983257	2.807002	8.509000
4.007976	2.807133	8.556000
4.033670	2.807174	8.603000
4.058708	2.806952	8.648000
4.084200	2.806759	8.694000
4.109287	2.810232	8.740000
4.133983	2.814423	8.787000
4.158624	2.837376	8.834000
4.183300	2.819447	8.879000
4.208811	2.823643	8.926000
4.233814	2.833004	8.972000
4.433570	2.837285	9.019000
4.458805	2.838150	9.387000
4.483972	2.836088	9.434000
4.509115	2.833540	9.479000
4.534262	2.830108	9.525000
4.559699	2.828394	9.572000
4.583871	2.825543	9.618000
4.609072	2.819397	9.664000
4.633280	2.814170	9.711000
4.658613	2.806300	9.756000
4.683608	2.800269	9.803000
4.709234	2.793976	9.849000
4.734394	2.784482	9.895000
4.759483	2.775733	9.941000
4.784195	2.768126	9.987000
4.808483	2.763475	10.033000
4.832822	2.755211	10.080000
4.917850	2.747588	10.126000
4.942840	2.723324	10.280000
5.142070	2.674468	10.327000
5.167184	2.667760	10.694000
5.191805	2.659455	10.741000
5.217114	2.648370	10.787000
5.241677	2.636512	10.834000
5.266354	2.625364	10.880000
5.291545	2.618368	10.926000
5.317472	2.610737	10.972000
5.342664	2.604674	11.019000
5.367640	2.600213	11.065000
5.393218	2.594807	11.112000
5.418047	2.590199	11.158000
5.510070	2.584935	11.204000
5.535071	2.571352	11.375000
5.619891	2.560850	11.422000
5.645144	2.557886	11.577000
5.670310	2.553384	11.623000
5.695596	2.552699	11.670000
5.720714	2.549922	11.716000
5.745784	2.543814	11.763000
5.769864	2.542175	11.808000
5.794907	2.535048	11.856000
5.820362	2.531389	11.902000
5.845499	2.526402	11.948000
5.870711	2.518855	11.994000
5.896046	2.512027	12.040000
5.921489	2.507622	12.087000
5.946313	2.498853	12.133000
5.971866	2.490864	12.180000
5.996023	2.485004	12.225000
6.020851	2.478598	12.273000
6.106059	2.476186	12.318000
6.131010	2.454826	12.475000
6.216061	2.433525	12.520000
6.241546	2.424583	12.678000
6.266548	2.417547	12.725000
6.291648	2.410600	12.770000
6.316512	2.398363	12.818000
6.341367	2.393075	12.864000
6.366312	2.382414	12.910000
6.391577	2.373877	12.957000
6.417043	2.362838	13.003000
6.442053	2.350403	13.050000
6.467385	2.339221	13.095000
6.492967	2.328267	13.142000
6.518131	2.316408	13.188000
6.542113	2.305111	13.235000
6.566850	2.294344	13.281000
6.591562	2.284442	13.327000
6.616963	2.276404	13.372000
6.702062	2.266179	13.420000
6.727559	2.236532	13.575000
6.811886	2.210560	13.622000
6.837290	2.203130	13.778000
6.861721	2.195406	13.824000
6.886819	2.187548	13.871000
6.911987	2.180583	13.918000
6.937505	2.175323	13.964000
6.963064	2.171225	14.011000
6.987938	2.166742	14.056000
7.013166	2.165733	14.104000
7.038454	2.166661	14.150000
7.062916	2.166087	14.196000
7.087800	2.166854	14.241000
7.112348	2.170210	14.287000
7.137727	2.167827	14.335000
7.163134	2.167424	14.380000
7.188308	2.171487	14.427000
7.213397	2.172819	14.473000
7.412691	2.172521	14.519000
7.438226	2.168388	14.887000
7.462561	2.164460	14.934000
7.487967	2.164850	14.980000
7.512827	2.161362	15.026000
7.537615	2.160993	15.072000
7.562647	2.157093	15.118000
7.587457	2.153140	15.164000
7.612379	2.149825	15.210000
7.637515	2.148173	15.255000
7.662411	2.150027	15.301000
7.686567	2.149001	15.346000
7.710890	2.148990	15.392000
7.736137	2.146530	15.439000
7.761010	2.145242	15.484000
7.786381	2.144107	15.530000
7.811923	2.144006	15.577000
7.896130	2.144555	15.623000
7.920564	2.135480	15.779000
8.119803	2.126143	15.825000
8.144559	2.123599	16.193000
8.169671	2.123296	16.239000
8.194672	2.123579	16.285000
8.219603	2.124239	16.331000
8.245058	2.127471	16.378000
8.270017	2.126313	16.424000
8.295512	2.128202	16.469000
8.320513	2.128202	16.516000
8.345163	2.130241	16.563000
8.369765	2.132936	16.609000
8.394840	2.137029	16.656000
8.489254	2.139401	16.701000
8.514126	2.142658	16.875000
8.599939	2.144504	16.922000
8.625621	2.145953	17.078000
8.650530	2.143520	17.125000
8.675482	2.145882	17.172000
8.700257	2.145730	17.219000
8.724799	2.145629	17.265000
8.750305	2.145831	17.311000
8.775545	2.143182	17.358000
8.801046	2.144267	17.404000
8.826152	2.144066	17.450000
8.851674	2.147916	17.497000
8.876399	2.142698	17.543000
8.901388	2.141370	17.589000
8.925783	2.141228	17.634000
8.951054	2.141955	17.682000
8.975750	2.144176	17.728000
9.001042	2.142172	17.774000
9.085252	2.142939	17.821000
9.110577	2.142929	17.975000
9.195831	2.147048	18.022000
9.220600	2.143297	18.179000
9.244935	2.146216	18.225000
9.269974	2.143662	18.271000
9.295080	2.145352	18.317000
9.320320	2.148153	18.363000
9.345456	2.148689	18.409000
9.370867	2.153393	18.455000
9.396170	2.152146	18.502000
9.421410	2.151742	18.548000
9.445598	2.151641	18.595000
9.470546	2.154871	18.641000
9.495995	2.153715	18.688000
9.520722	2.153745	18.734000
9.546509	2.157111	18.780000
9.571185	2.155067	18.827000
9.597021	2.156294	18.873000
9.681039	2.155907	18.919000
9.706036	2.164698	19.075000
9.790800	2.162831	19.122000
9.815510	2.163326	19.279000
9.841399	2.166309	19.325000
9.865915	2.171306	19.371000
9.890965	2.174470	19.417000
9.916019	2.175686	19.463000
9.940862	2.180542	19.508000
9.965643	2.185297	19.554000
9.990203	2.190112	19.601000
10.015751	2.193357	19.648000
10.040613	2.197160	19.694000
10.066179	2.200855	19.740000
10.090856	2.205344	19.786000
10.116080	2.209933	19.831000
10.141001	2.211637	19.877000
10.165369	2.216217	19.923000
10.189900	2.220847	19.969000
10.391855	2.229526	20.015000
10.416715	2.274635	20.387000
10.440772	2.281050	20.433000
10.465801	2.288475	20.479000
10.491108	2.293146	20.525000
10.516253	2.298635	20.572000
10.542077	2.304065	20.618000
10.566790	2.310530	20.665000
10.592150	2.314634	20.711000
10.617026	2.326695	20.756000
10.641217	2.335748	20.803000
10.666255	2.342117	20.849000
10.691053	2.347764	20.895000
10.716458	2.355518	20.941000
10.741833	2.362160	20.988000
10.767075	2.367417	21.034000
10.791876	2.376698	21.080000
10.874789	2.383071	21.126000
10.899808	2.406698	21.281000
11.099241	2.465171	21.328000
11.124795	2.471946	21.696000
11.149869	2.479627	21.741000
11.174815	2.483938	21.788000
11.199908	2.488420	21.834000
11.225324	2.491085	21.880000
11.250687	2.494178	21.927000
11.275574	2.498852	21.972000
11.300073	2.502573	22.019000
11.324899	2.508301	22.065000
11.350664	2.511565	22.112000
11.376108	2.516542	22.159000
11.468038	2.518930	22.206000
11.493682	2.531469	22.375000
11.578464	2.542336	22.422000
11.603364	2.545884	22.579000
11.627599	2.544837	22.625000
11.653236	2.544817	22.671000
11.677864	2.543783	22.717000
11.703209	2.547731	22.763000
11.728695	2.546444	22.809000
11.753881	2.548795	22.856000
11.778780	2.547791	22.902000
11.804303	2.548765	22.949000
11.828925	2.551653	22.995000
11.853375	2.549643	23.041000
11.878412	2.547200	23.088000
11.903789	2.541679	23.134000
11.928846	2.536375	23.181000
11.954749	2.530192	23.227000
11.980094	2.525558	23.272000
12.064336	2.518078	23.320000
12.088411	2.499176	23.475000
12.173475	2.480651	23.521000
12.198899	2.473636	23.679000
12.223938	2.469351	23.725000
12.249853	2.464526	23.772000
12.274568	2.459099	23.818000
12.299949	2.452877	23.864000
12.325050	2.446663	23.910000
12.350162	2.440132	23.957000
12.374773	2.434580	24.004000
12.399558	2.428230	24.049000
12.425002	2.420121	24.096000
12.450021	2.415081	24.142000
12.475753	2.408127	24.189000
12.500749	2.400556	24.235000
12.525659	2.397356	24.281000
12.550815	2.391084	24.327000
12.575621	2.384860	24.374000
12.659161	2.379002	24.420000
12.779559	2.364086	24.575000
12.804751	2.344088	24.797000
12.830110	2.340514	24.844000
12.854645	2.336481	24.889000
12.880457	2.330991	24.936000
12.905115	2.327721	24.982000
12.929521	2.322959	25.028000
12.954201	2.319800	25.073000
12.979303	2.313749	25.120000
13.004650	2.312005	25.167000
13.029758	2.308063	25.213000
13.054930	2.302219	25.259000
13.080448	2.298625	25.304000
13.105432	2.296320	25.352000
13.130433	2.293105	25.398000
13.154619	2.291558	25.444000
13.179408	2.290522	25.490000
13.378217	2.286786	25.536000
13.403223	2.225713	25.903000
13.428366	2.243168	25.949000
13.453655	2.255997	25.996000
13.479164	2.266844	26.042000
13.504645	2.276509	26.088000
13.529671	2.282181	26.135000
13.554486	2.283616	26.181000
13.578802	2.286710	26.227000
13.603674	2.289657	26.273000
13.628500	2.295940	26.319000
13.654179	2.300793	26.366000
13.679216	2.308169	26.412000
13.704851	2.316863	26.458000
13.730054	2.323105	26.505000
13.755423	2.333655	26.552000
13.851403	2.339337	26.599000
13.876755	2.369939	26.775000
14.076378	2.436295	26.822000
14.101470	2.440766	27.191000
14.127104	2.443825	27.237000
14.151291	2.451755	27.284000
14.176108	2.454641	27.329000
14.201386	2.458240	27.377000
14.226281	2.457402	27.422000
14.251700	2.460169	27.469000
14.276899	2.463045	27.516000
14.302678	2.465786	27.562000
14.327306	2.466472	27.608000
14.352928	2.469526	27.654000
14.446599	2.473781	27.701000
14.471449	2.496655	27.875000
14.556116	2.513941	27.922000
14.581786	2.516204	28.079000
14.606818	2.518796	28.125000
14.631672	2.521932	28.171000
14.657088	2.523961	28.217000
14.681929	2.525602	28.263000
14.707513	2.531098	28.310000
14.731612	2.537774	28.356000
14.756644	2.539745	28.402000
14.781605	2.541434	28.449000
14.806972	2.542056	28.494000
14.831910	2.547764	28.541000
14.857254	2.548199	28.587000
14.882783	2.550751	28.634000
14.908123	2.550680	28.680000
14.933603	2.552099	28.727000
14.958315	2.554259	28.773000
15.042617	2.555134	28.819000
15.067809	2.552721	28.975000
15.152942	2.541773	29.022000
15.178835	2.543172	29.179000
15.203922	2.546376	29.225000
15.229190	2.554330	29.271000
15.254185	2.555073	29.317000
15.277796	2.555083	29.363000
15.303006	2.556208	29.409000
15.328093	2.559125	29.456000
15.353268	2.556097	29.502000
15.378759	2.555093	29.548000
15.403665	2.559044	29.594000
15.429252	2.559206	29.641000
15.453723	2.561796	29.687000
15.478933	2.564785	29.733000
15.503388	2.567136	29.780000
15.528347	2.565809	29.825000
15.553004	2.566651	29.872000
15.638736	2.563951	29.918000
15.663734	2.564632	30.075000
15.749335	2.562562	30.121000
15.774710	2.562593	30.278000
15.799081	2.556229	30.325000
15.823838	2.560852	30.371000
15.848192	2.563133	30.417000
15.873652	2.559970	30.463000
15.898636	2.558963	30.508000
15.924232	2.557940	30.555000
15.948787	2.554871	30.601000
15.973798	2.552120	30.647000
15.999009	2.550106	30.694000
16.023126	2.548300	30.739000
16.048109	2.547845	30.786000
16.073244	2.545291	30.832000
16.098430	2.545473	30.878000
16.123590	2.546028	30.923000
16.148807	2.543993	30.970000
16.349916	2.545432	31.016000
16.374860	2.546547	31.388000
16.399474	2.546446	31.433000
16.425103	2.547192	31.480000
16.450212	2.544670	31.526000
16.475243	2.543983	31.573000
16.499555	2.542645	31.619000
16.524440	2.541893	31.665000
16.549774	2.540505	31.711000
16.574880	2.541701	31.757000
16.600151	2.540919	31.804000
16.625499	2.541091	31.850000
16.650614	2.538143	31.896000
16.674919	2.539319	31.942000
16.700320	2.538143	31.988000
16.724450	2.546304	32.035000
16.750113	2.542428	32.081000
16.834360	2.541731	32.128000
16.859308	2.554930	32.282000
17.058448	2.578471	32.328000
17.083481	2.581339	32.697000
17.108805	2.586023	32.742000
17.132956	2.588223	32.788000
17.158137	2.588626	32.835000
17.183035	2.591539	32.880000
17.208369	2.591438	32.927000
17.233223	2.591741	32.973000
17.258685	2.593739	33.019000
17.283844	2.597227	33.066000
17.309046	2.604147	33.112000
17.333796	2.605732	33.158000
17.425661	2.607151	33.205000
17.451288	2.617249	33.374000
17.536372	2.620732	33.422000
17.561438	2.621181	33.579000
17.586912	2.625084	33.625000
17.611889	2.625446	33.671000
17.637187	2.625936	33.718000
17.661926	2.626452	33.764000
17.686394	2.625376	33.810000
17.711705	2.629649	33.856000
17.736332	2.629407	33.903000
17.762172	2.632318	33.948000
17.787291	2.630402	33.996000
17.812581	2.631782	34.042000
17.837746	2.631434	34.088000
17.862863	2.633284	34.135000
17.887835	2.636888	34.181000
17.912255	2.637934	34.227000
17.937349	2.640694	34.273000
18.022143	2.643984	34.319000
18.047003	2.652907	34.475000
18.132286	2.666909	34.521000
18.157584	2.673449	34.678000
18.181813	2.676912	34.724000
18.206796	2.682230	34.771000
18.232063	2.689448	34.818000
18.256654	2.691865	34.863000
18.282194	2.696140	34.909000
18.307190	2.702091	34.956000
18.332626	2.705133	35.003000
18.357640	2.710223	35.048000
18.382807	2.714748	35.095000
18.407111	2.718098	35.141000
18.432035	2.723144	35.187000
18.457185	2.723947	35.234000
18.482137	2.726803	35.280000
18.507690	2.726617	35.326000
18.532893	2.729522	35.372000
18.617969	2.729472	35.420000
18.643382	2.732667	35.576000
18.727575	2.728870	35.622000
18.752725	2.728304	35.779000
18.777502	2.727753	35.825000
18.802719	2.727419	35.871000
18.828082	2.725186	35.918000
18.853140	2.721490	35.964000
18.878599	2.714994	36.010000
18.903486	2.710941	36.057000
18.928960	2.706780	36.103000
18.953204	2.702939	36.148000
18.978311	2.697257	36.195000
19.002741	2.693896	36.241000
19.027931	2.687284	36.287000
19.053161	2.684332	36.333000
19.078156	2.680971	36.380000
19.103599	2.676694	36.426000
19.128792	2.670148	36.472000
19.328569	2.669487	36.519000
19.353688	2.621516	36.888000
19.378471	2.616397	36.934000
19.402764	2.612677	36.980000
19.427643	2.607644	37.026000
19.453105	2.603299	37.072000
19.478445	2.596284	37.119000
19.503785	2.591221	37.165000
19.529075	2.586395	37.211000
19.554365	2.584594	37.258000
19.579918	2.581309	37.304000
19.604298	2.573859	37.351000
19.629109	2.567106	37.397000
19.653234	2.561406	37.443000
19.678618	2.555465	37.489000
19.704098	2.551957	37.536000
19.729033	2.548267	37.582000
19.813585	2.547354	37.629000
19.838184	2.550187	37.783000
20.038081	2.543735	37.829000
20.063438	2.548460	38.198000
20.087985	2.553664	38.245000
20.112829	2.557837	38.291000
20.138133	2.559605	38.337000
20.163311	2.561846	38.383000
20.188204	2.563345	38.429000
20.213819	2.561704	38.475000
20.238630	2.564228	38.522000
20.263705	2.565005	38.568000
20.288901	2.568851	38.615000
20.313719	2.568674	38.661000
20.404921	2.572683	38.707000
20.430114	2.580173	38.875000
20.515348	2.591539	38.921000
20.540638	2.592644	39.079000
20.564637	2.597894	39.124000
20.589651	2.597196	39.171000
20.614232	2.601443	39.217000
20.639684	2.604208	39.262000
20.665099	2.603592	39.310000
20.690262	2.605904	39.355000
20.715166	2.605863	39.401000
20.740076	2.605681	39.447000
20.764131	2.606635	39.492000
20.788831	2.608620	39.539000
20.813996	2.610932	39.585000
20.838785	2.614948	39.631000
20.864110	2.616366	39.676000
20.889139	2.617320	39.722000
20.914550	2.616569	39.769000
21.001087	2.615342	39.816000
21.025802	2.611298	39.975000
21.110545	2.604677	40.021000
21.134982	2.603845	40.178000
21.160334	2.599131	40.224000
21.185457	2.597287	40.271000
21.210685	2.599842	40.317000
21.235676	2.599882	40.363000
21.261139	2.597206	40.409000
21.286283	2.596021	40.456000
21.310701	2.595502	40.502000
21.335242	2.598176	40.548000
21.360305	2.598656	40.594000
21.385657	2.596888	40.640000
21.410088	2.600699	40.686000
21.435657	2.602163	40.732000
21.460878	2.602699	40.778000
21.486014	2.600699	40.824000
21.510674	2.605201	40.870000
21.595836	2.606908	40.917000
21.620636	2.617113	41.075000
21.706393	2.623685	41.122000
21.731096	2.627557	41.279000
21.756637	2.630064	41.325000
21.781666	2.633354	41.371000
21.807129	2.638025	41.418000
21.832002	2.641467	41.464000
21.857736	2.649192	41.510000
21.881847	2.651915	41.557000
21.906342	2.653771	41.603000
21.931853	2.654614	41.649000
21.957348	2.657466	41.696000
21.982646	2.657733	41.742000
22.007683	2.657031	41.789000
22.032836	2.654766	41.834000
22.057733	2.651997	41.881000
22.082961	2.650738	41.927000
22.107470	2.645905	41.973000
