Sample	2mm tape 
date	08/01/2025
	
Temperature (K)	77.00
Angle (deg.)	0.000000
field / T	0.450000
	
		
Approx. trace time (s)	120.0	
		
Current / A	V1  -sample/ uV	time/s
-0.019039	2.259529	0.000000
-0.018228	2.251946	0.081000
-0.019149	2.236767	0.127000
-0.018338	2.231853	0.287000
-0.018897	2.235245	0.332000
-0.018437	2.223224	0.379000
-0.018197	2.222451	0.426000
-0.018940	2.217740	0.472000
-0.018437	2.212938	0.519000
-0.019192	2.214227	0.565000
-0.018283	2.212999	0.610000
-0.018829	2.211760	0.656000
-0.018295	2.217214	0.703000
-0.016872	2.221001	0.750000
0.013548	2.217842	0.796000
0.039712	2.222890	0.842000
0.064316	2.221885	0.888000
0.089976	2.225762	0.935000
0.114866	2.222941	0.980000
0.198601	2.220596	1.027000
0.222895	2.218938	1.181000
0.310095	2.217103	1.227000
0.334527	2.214930	1.387000
0.359984	2.215102	1.434000
0.384630	2.219388	1.479000
0.410599	2.226768	1.526000
0.434833	2.220465	1.571000
0.459749	2.217750	1.618000
0.485085	2.209516	1.664000
0.510154	2.217862	1.710000
0.534688	2.220374	1.757000
0.559873	2.216851	1.803000
0.584727	2.217791	1.848000
0.610234	2.217967	1.896000
0.635382	2.227253	1.941000
0.660068	2.223245	1.988000
0.685940	2.230777	2.033000
0.710696	2.228128	2.080000
0.909560	2.237216	2.126000
0.934304	2.257734	2.494000
0.958612	2.263460	2.540000
0.983930	2.265917	2.587000
1.008980	2.265043	2.633000
1.034669	2.268557	2.679000
1.059172	2.270436	2.725000
1.084412	2.271503	2.771000
1.109619	2.277948	2.817000
1.133977	2.285990	2.863000
1.158568	2.284049	2.909000
1.183607	2.282821	2.955000
1.209185	2.280171	3.002000
1.234197	2.270416	3.048000
1.259253	2.274394	3.093000
1.284408	2.273419	3.140000
1.309569	2.274991	3.185000
1.392849	2.285005	3.232000
1.417372	2.290761	3.386000
1.616921	2.289614	3.434000
1.642462	2.285480	3.802000
1.667573	2.286051	3.848000
1.693019	2.288548	3.895000
1.718247	2.289988	3.941000
1.742952	2.294639	3.987000
1.768463	2.294527	4.033000
1.793501	2.298880	4.079000
1.817852	2.308389	4.125000
1.842338	2.314878	4.172000
1.867893	2.310026	4.218000
1.892815	2.314399	4.264000
1.986403	2.313336	4.311000
2.011199	2.307660	4.481000
2.097771	2.319009	4.528000
2.122026	2.319762	4.687000
2.146923	2.322850	4.733000
2.171748	2.326636	4.779000
2.196590	2.327450	4.825000
2.222346	2.324412	4.872000
2.247867	2.344302	4.919000
2.272985	2.342524	4.965000
2.298495	2.342362	5.011000
2.323483	2.347467	5.058000
2.348375	2.347755	5.105000
2.372908	2.346850	5.151000
2.397339	2.344828	5.196000
2.422659	2.349539	5.243000
2.447832	2.348382	5.289000
2.473066	2.353897	5.335000
2.498424	2.351925	5.380000
2.581604	2.350566	5.427000
2.605711	2.358087	5.581000
2.692134	2.367560	5.628000
2.717043	2.367327	5.787000
2.743125	2.368343	5.834000
2.767958	2.363834	5.879000
2.793009	2.370830	5.926000
2.817949	2.371442	5.971000
2.842896	2.363156	6.017000
2.868185	2.363511	6.064000
2.892791	2.359543	6.110000
2.917308	2.354635	6.156000
2.942158	2.352982	6.202000
2.967095	2.355135	6.248000
2.992747	2.360832	6.294000
3.017654	2.357835	6.340000
3.043035	2.358486	6.386000
3.067963	2.359735	6.432000
3.092368	2.360984	6.478000
3.176924	2.360372	6.525000
3.202345	2.355853	6.681000
3.288153	2.354311	6.728000
3.313547	2.349610	6.887000
3.338734	2.351602	6.934000
3.364030	2.353664	6.979000
3.389303	2.359512	7.025000
3.414084	2.353705	7.072000
3.439196	2.349306	7.119000
3.463694	2.352992	7.165000
3.488486	2.350707	7.211000
3.513746	2.351905	7.257000
3.539009	2.347548	7.304000
3.564728	2.347285	7.349000
3.589592	2.348953	7.396000
3.614978	2.340208	7.442000
3.639351	2.344363	7.489000
3.664781	2.341907	7.535000
3.689170	2.341275	7.581000
3.887845	2.345652	7.628000
3.913627	2.339399	7.995000
3.938278	2.339946	8.041000
3.963605	2.342352	8.088000
3.988729	2.336483	8.134000
4.014020	2.335866	8.180000
4.039638	2.335457	8.227000
4.064363	2.333966	8.273000
4.089266	2.339824	8.319000
4.113613	2.340547	8.365000
4.138602	2.347417	8.411000
4.163448	2.288018	8.456000
4.188461	2.347704	8.503000
4.213953	2.346007	8.549000
4.239456	2.346138	8.596000
4.264746	2.347235	8.643000
4.289572	2.342423	8.688000
4.372651	2.347083	8.735000
4.397837	2.348726	8.889000
4.596650	2.346279	8.936000
4.622326	2.342605	9.303000
4.647505	2.346496	9.350000
4.672766	2.353184	9.396000
4.697497	2.358587	9.442000
4.723099	2.360362	9.489000
4.747150	2.361499	9.534000
4.771457	2.366372	9.580000
4.796905	2.366513	9.627000
4.821875	2.366640	9.673000
4.847595	2.364487	9.719000
4.872477	2.364178	9.765000
4.964622	2.364168	9.812000
4.988936	2.373742	9.981000
5.074898	2.382991	10.028000
5.100230	2.386262	10.187000
5.125410	2.389664	10.233000
5.150859	2.380161	10.279000
5.175721	2.379529	10.325000
5.201085	2.381369	10.371000
5.225853	2.381844	10.418000
5.250672	2.393788	10.464000
5.275587	2.391858	10.510000
5.300317	2.392353	10.557000
5.325637	2.397003	10.603000
5.350675	2.395583	10.648000
5.375990	2.401613	10.695000
5.401054	2.400294	10.741000
5.425917	2.397074	10.786000
5.450692	2.402690	10.833000
5.475178	2.413935	10.879000
5.559745	2.416076	10.925000
5.584808	2.408116	11.082000
5.671595	2.407251	11.128000
5.696427	2.406849	11.286000
5.721360	2.413212	11.332000
5.746467	2.420618	11.378000
5.771044	2.426822	11.425000
5.795966	2.428810	11.471000
5.820665	2.431091	11.517000
5.846206	2.435054	11.563000
5.871057	2.433483	11.610000
5.896260	2.436501	11.655000
5.921428	2.437254	11.702000
5.946272	2.435285	11.747000
5.971439	2.436088	11.794000
5.996562	2.434629	11.841000
6.020857	2.427532	11.887000
6.045551	2.428099	11.933000
6.071035	2.423041	11.979000
6.155813	2.421501	12.025000
6.181059	2.421835	12.181000
6.267472	2.404657	12.228000
6.292485	2.401553	12.387000
6.318061	2.393410	12.433000
6.342823	2.392762	12.479000
6.355568	2.398212	12.526000
6.392269	2.395401	12.572000
6.417216	2.398975	12.619000
6.442518	2.399693	12.665000
6.467722	2.406879	12.711000
6.493054	2.395432	12.757000
6.518474	2.393798	12.804000
6.543253	2.390861	12.850000
6.567943	2.386029	12.896000
6.592530	2.382668	12.942000
6.617293	2.379226	12.988000
6.642500	2.375349	13.034000
6.667845	2.375592	13.080000
6.867004	2.380111	13.126000
6.891946	2.384478	13.494000
6.917369	2.386202	13.540000
6.942725	2.378332	13.587000
6.968207	2.378761	13.634000
6.992713	2.373706	13.680000
7.017115	2.371452	13.726000
7.041937	2.368323	13.772000
7.066982	2.369278	13.818000
7.092441	2.364557	13.865000
7.117092	2.365513	13.911000
7.142973	2.372851	13.957000
7.168028	2.367918	14.003000
7.193043	2.366680	14.049000
7.217910	2.362283	14.096000
7.242250	2.360129	14.142000
7.267633	2.356232	14.189000
7.351740	2.353133	14.234000
7.376932	2.338202	14.389000
7.576468	2.292232	14.435000
7.601872	2.288881	14.803000
7.627186	2.288658	14.850000
7.652016	2.288118	14.896000
7.676360	2.282263	14.942000
7.701431	2.276598	14.989000
7.726905	2.281622	15.036000
7.752010	2.282618	15.081000
7.777401	2.277714	15.129000
7.802414	2.286232	15.175000
7.827857	2.281481	15.221000
7.853568	2.286252	15.267000
7.942991	2.287905	15.314000
7.968123	2.298707	15.481000
8.054602	2.310187	15.527000
8.080560	2.316379	15.687000
8.105388	2.321621	15.733000
8.130518	2.326145	15.779000
8.155491	2.333965	15.826000
8.180298	2.326443	15.872000
8.204877	2.336644	15.918000
8.229561	2.339267	15.964000
8.254881	2.349488	16.011000
8.280299	2.354543	16.057000
8.305469	2.360452	16.103000
8.330249	2.364738	16.148000
8.355046	2.367897	16.194000
8.380053	2.380009	16.241000
8.404306	2.386160	16.287000
8.429223	2.386994	16.332000
8.454011	2.387035	16.379000
8.539325	2.392262	16.425000
8.564463	2.406261	16.581000
8.650590	2.422108	16.627000
8.675725	2.429103	16.786000
8.699911	2.444875	16.832000
8.724450	2.441655	16.878000
8.749715	2.450524	16.924000
8.774760	2.455888	16.971000
8.799792	2.459230	17.017000
8.825161	2.465049	17.063000
8.850322	2.470253	17.109000
8.875874	2.468457	17.156000
8.901052	2.481424	17.201000
8.925374	2.482114	17.248000
8.949659	2.489696	17.294000
8.974618	2.495606	17.340000
8.999743	2.493538	17.387000
9.025087	2.500976	17.433000
9.050520	2.501102	17.478000
9.135786	2.499861	17.525000
9.160634	2.510103	17.681000
9.246520	2.509506	17.728000
9.270983	2.508856	17.887000
9.296376	2.508249	17.933000
9.321539	2.510970	17.979000
9.346479	2.513292	18.026000
9.372269	2.520196	18.072000
9.397104	2.518868	18.119000
9.422529	2.518732	18.164000
9.447493	2.516769	18.211000
9.471527	2.516109	18.257000
9.496942	2.514963	18.303000
9.521434	2.512378	18.350000
9.546797	2.513423	18.396000
9.571775	2.516420	18.442000
9.597150	2.521311	18.488000
9.622879	2.519141	18.535000
9.647869	2.522912	18.581000
9.846791	2.524869	18.627000
9.871977	2.551449	18.995000
9.897044	2.561679	19.041000
9.921352	2.567403	19.087000
9.946321	2.574560	19.134000
9.971189	2.576388	19.180000
9.996578	2.581903	19.227000
10.021991	2.588289	19.273000
10.047347	2.596147	19.320000
10.072899	2.604945	19.365000
10.097168	2.604996	19.411000
10.122170	2.607479	19.457000
10.146041	2.615772	19.503000
10.171440	2.622262	19.549000
10.196903	2.628327	19.596000
10.221739	2.639933	19.642000
10.247444	2.641738	19.689000
10.331074	2.649537	19.735000
10.356166	2.662715	19.889000
10.555569	2.669200	19.936000
10.579948	2.665995	20.304000
10.605139	2.675498	20.350000
10.630103	2.669750	20.396000
10.655925	2.667860	20.443000
10.681190	2.668704	20.489000
10.706208	2.666267	20.536000
10.731326	2.664388	20.581000
10.756855	2.668214	20.629000
10.781827	2.659777	20.675000
10.805714	2.651604	20.721000
10.830521	2.648399	20.767000
10.922314	2.648399	20.813000
10.947504	2.657210	20.981000
11.034154	2.660328	21.027000
11.058917	2.659434	21.187000
11.083816	2.655820	21.233000
11.108575	2.652175	21.279000
11.133159	2.643046	21.326000
11.157979	2.640074	21.371000
11.183374	2.637015	21.418000
11.208256	2.645472	21.464000
11.233712	2.645664	21.510000
11.259106	2.644987	21.556000
11.284159	2.636510	21.603000
11.308982	2.638609	21.649000
11.333108	2.634276	21.695000
11.358344	2.626485	21.740000
11.383223	2.620152	21.786000
11.408651	2.619757	21.833000
11.433659	2.619747	21.879000
11.518486	2.620263	21.924000
11.543833	2.611980	22.081000
11.629590	2.607569	22.128000
11.654454	2.600150	22.287000
11.678695	2.600432	22.333000
11.704311	2.596582	22.379000
11.729409	2.594139	22.426000
11.754269	2.589827	22.472000
11.779498	2.585684	22.518000
11.804322	2.579936	22.564000
11.830120	2.575171	22.610000
11.854236	2.580470	22.656000
11.878833	2.575983	22.703000
11.904005	2.580747	22.748000
11.929004	2.578426	22.795000
11.954496	2.581535	22.841000
11.979290	2.581041	22.887000
12.005082	2.587652	22.933000
12.030025	2.587344	22.979000
12.113640	2.586138	23.026000
12.138247	2.573783	23.181000
12.224527	2.567417	23.227000
12.250190	2.564192	23.387000
12.275010	2.564597	23.434000
12.300790	2.563502	23.479000
12.325711	2.565531	23.526000
12.351289	2.566444	23.573000
12.375939	2.565723	23.618000
12.400638	2.565510	23.665000
12.425356	2.562774	23.712000
12.450211	2.559873	23.757000
12.475487	2.555829	23.804000
12.500056	2.544009	23.849000
12.525490	2.555552	23.896000
12.551119	2.551923	23.942000
12.575968	2.553467	23.988000
12.601436	2.557248	24.035000
12.626082	2.563350	24.080000
12.825231	2.560654	24.127000
12.849564	2.540733	24.495000
12.874614	2.535463	24.540000
12.900019	2.532964	24.587000
12.925423	2.532046	24.634000
12.950729	2.533890	24.679000
12.975553	2.524188	24.726000
13.001216	2.520792	24.772000
13.026010	2.523364	24.819000
13.050652	2.521220	24.865000
13.075715	2.521685	24.912000
13.100122	2.523384	24.958000
13.125505	2.516870	25.004000
13.150819	2.514477	25.050000
13.175808	2.513956	25.096000
13.201027	2.512588	25.143000
13.226514	2.509688	25.189000
13.309817	2.505679	25.235000
13.334465	2.499457	25.391000
13.533791	2.470877	25.436000
13.559493	2.471600	25.805000
13.584639	2.464766	25.851000
13.609763	2.472134	25.897000
13.634831	2.472296	25.943000
13.660040	2.473370	25.990000
13.685300	2.465659	26.036000
13.710311	2.467219	26.082000
13.734699	2.464453	26.128000
13.759235	2.462867	26.175000
13.784620	2.459456	26.221000
13.809540	2.459289	26.267000
13.901219	2.462574	26.313000
13.925815	2.452399	26.482000
14.012319	2.442910	26.527000
14.036931	2.440366	26.687000
14.062373	2.441967	26.733000
14.087013	2.447523	26.780000
14.112548	2.444954	26.826000
14.137607	2.446802	26.872000
14.162525	2.450946	26.918000
14.188066	2.451304	26.964000
14.213170	2.452834	27.010000
14.236988	2.451486	27.057000
14.261921	2.450280	27.103000
14.287044	2.454842	27.148000
14.312174	2.461878	27.195000
14.337576	2.462695	27.241000
14.363245	2.467717	27.288000
14.387930	2.469450	27.334000
14.413651	2.476354	27.380000
14.496004	2.483177	27.426000
14.521385	2.499264	27.581000
14.607736	2.508611	27.627000
14.632835	2.511841	27.787000
14.658355	2.513573	27.834000
14.683357	2.519352	27.879000
14.708811	2.525736	27.926000
14.733756	2.533727	27.972000
14.758917	2.541005	28.018000
14.783035	2.541256	28.064000
14.808194	2.542110	28.111000
14.833235	2.542534	28.158000
14.858248	2.549075	28.204000
14.883556	2.543649	28.250000
14.908575	2.537617	28.295000
14.934016	2.544553	28.341000
14.959217	2.546744	28.388000
14.983757	2.553658	28.434000
15.008747	2.557115	28.480000
15.092847	2.567239	28.527000
15.118345	2.576739	28.680000
15.204171	2.591826	28.728000
15.230016	2.590832	28.887000
15.254956	2.593395	28.933000
15.280212	2.592880	28.979000
15.305330	2.596135	29.026000
15.329730	2.594757	29.073000
15.355445	2.601647	29.119000
15.379813	2.608289	29.165000
15.405528	2.613196	29.212000
15.431019	2.624653	29.259000
15.455787	2.635848	29.305000
15.481437	2.650385	29.351000
15.506365	2.664447	29.397000
15.531588	2.680865	29.444000
15.556418	2.688458	29.490000
15.581022	2.698208	29.537000
15.605700	2.709627	29.582000
15.804825	2.717457	29.629000
15.830415	2.787708	29.996000
15.855076	2.795861	30.042000
15.880255	2.802807	30.088000
15.905109	2.808246	30.133000
15.930369	2.810551	30.179000
15.955161	2.819139	30.226000
15.979693	2.816874	30.272000
16.004455	2.824584	30.318000
16.029475	2.829628	30.364000
16.054825	2.841217	30.411000
16.080034	2.852257	30.457000
16.104841	2.857425	30.503000
16.129493	2.860439	30.548000
16.154103	2.870110	30.594000
16.178725	2.870972	30.640000
16.202935	2.882475	30.686000
16.287306	2.883096	30.731000
16.312628	2.894654	30.886000
16.511951	2.926608	30.932000
16.536824	2.927986	31.301000
16.561893	2.930328	31.347000
16.586501	2.934633	31.392000
16.610802	2.938011	31.439000
16.636000	2.943153	31.485000
16.661342	2.943481	31.530000
16.686720	2.948124	31.576000
16.711880	2.943551	31.623000
16.736676	2.945132	31.669000
16.761173	2.944616	31.714000
16.786023	2.947574	31.761000
16.880075	2.952036	31.807000
16.905009	2.952510	31.981000
16.991558	2.955493	32.028000
17.016444	2.950799	32.188000
17.041875	2.946735	32.233000
17.067355	2.945231	32.280000
17.092368	2.936582	32.326000
17.117841	2.935738	32.372000
17.142518	2.934362	32.419000
17.166844	2.929607	32.464000
17.191500	2.924347	32.511000
17.216789	2.924110	32.557000
17.241668	2.919997	32.603000
17.266543	2.918169	32.648000
17.291752	2.924680	32.694000
17.316697	2.926628	32.740000
17.340823	2.926089	32.786000
17.365462	2.919744	32.832000
17.390404	2.921893	32.878000
17.475952	2.918406	32.924000
17.501245	2.910810	33.081000
17.587898	2.906247	33.127000
17.613040	2.909583	33.287000
17.638620	2.911022	33.333000
17.662769	2.917039	33.379000
17.686820	2.922640	33.425000
17.712005	2.930136	33.472000
17.737037	2.938032	33.518000
17.762491	2.943885	33.564000
17.787614	2.953595	33.610000
17.812769	2.955787	33.657000
17.838092	2.963387	33.703000
17.863324	2.967848	33.749000
17.888140	2.968682	33.795000
17.912648	2.969929	33.841000
17.937529	2.972260	33.887000
17.962616	2.976894	33.933000
17.987912	2.981547	33.980000
18.072439	2.985947	34.027000
18.097608	3.021855	34.181000
18.183834	3.052122	34.228000
18.208788	3.062078	34.387000
18.233365	3.069266	34.434000
18.258097	3.074685	34.479000
18.283097	3.080493	34.525000
18.308295	3.077247	34.572000
18.333581	3.082858	34.617000
18.358398	3.088353	34.664000
18.383396	3.088495	34.710000
18.409009	3.091866	34.756000
18.433844	3.100323	34.803000
18.458425	3.108456	34.848000
18.482651	3.110311	34.895000
18.507653	3.116993	34.940000
18.532938	3.124091	34.987000
18.558493	3.132123	35.033000
18.583800	3.135458	35.079000
18.782919	3.144477	35.126000
18.808169	3.141216	35.494000
18.832760	3.145997	35.540000
18.857952	3.145168	35.586000
18.870464	3.144325	35.631000
18.907149	3.141990	35.678000
18.932548	3.142030	35.725000
18.957823	3.145886	35.771000
18.982923	3.149490	35.817000
19.008175	3.156436	35.863000
19.033100	3.158326	35.909000
19.058354	3.157350	35.956000
19.083025	3.153423	36.002000
19.108073	3.152832	36.048000
19.132614	3.149056	36.095000
19.158317	3.150062	36.141000
19.182902	3.149056	36.187000
19.267192	3.147585	36.233000
19.292539	3.143592	36.387000
19.491547	3.152672	36.435000
19.516057	3.152712	36.802000
19.540836	3.143765	36.848000
19.565754	3.145181	36.894000
19.590963	3.138154	36.940000
19.616073	3.133014	36.986000
19.641416	3.135940	37.033000
19.666530	3.132235	37.079000
19.691501	3.133004	37.125000
19.716357	3.136835	37.171000
19.741121	3.135738	37.217000
19.766123	3.138792	37.264000
19.859202	3.137421	37.311000
19.884033	3.137553	37.480000
19.970510	3.130515	37.527000
19.996202	3.128700	37.687000
20.020852	3.125683	37.734000
20.045831	3.124768	37.779000
20.070196	3.127542	37.825000
20.095290	3.122403	37.872000
20.120138	3.121361	37.918000
20.145096	3.119642	37.964000
20.170841	3.126992	38.010000
20.196058	3.127269	38.057000
20.221120	3.123706	38.103000
20.246143	3.132587	38.149000
20.270916	3.130566	38.195000
20.295632	3.129266	38.241000
20.319960	3.122912	38.288000
20.345953	3.125460	38.334000
20.370486	3.117858	38.379000
20.455350	3.112595	38.427000
20.480469	3.103825	38.581000
20.566760	3.106102	38.628000
20.591868	3.108244	38.787000
20.616113	3.108088	38.833000
20.640364	3.099025	38.879000
20.665515	3.092110	38.925000
20.691299	3.090801	38.972000
20.716196	3.083289	39.017000
20.741939	3.078028	39.064000
20.767388	3.057711	39.111000
20.791862	3.062484	39.157000
20.816782	3.055409	39.203000
20.841396	3.051377	39.249000
20.866392	3.042650	39.296000
20.891382	3.038218	39.341000
20.916599	3.030950	39.387000
20.942043	3.027837	39.434000
20.967028	3.025819	39.479000
21.051150	3.014148	39.526000
21.075113	3.015012	39.680000
21.161542	3.008288	39.728000
21.186275	3.011009	39.887000
21.211997	2.999804	39.933000
21.236836	2.994231	39.979000
21.261673	2.992274	40.025000
21.287113	2.988372	40.071000
21.311909	2.986949	40.117000
21.336911	2.980575	40.163000
21.361237	2.979257	40.209000
21.386564	2.971398	40.256000
21.411412	2.962348	40.302000
21.436836	2.956387	40.348000
21.462063	2.960036	40.394000
21.487205	2.947404	40.440000
21.512374	2.945864	40.487000
21.537169	2.944982	40.533000
21.561737	2.940893	40.579000
21.761791	2.942245	40.624000
21.786470	2.915274	40.994000
21.811113	2.919093	41.040000
21.835746	2.922350	41.087000
21.860990	2.933726	41.132000
21.886238	2.942457	41.178000
21.911357	2.951103	41.224000
21.936810	2.957392	41.271000
21.961386	2.962895	41.316000
21.986442	2.965014	41.362000
22.010942	2.963716	41.409000
22.036204	2.968552	41.456000
22.061273	2.968714	41.502000
22.086544	2.964111	41.547000
22.111759	2.970419	41.594000
22.136598	2.974149	41.640000
22.161838	2.968895	41.686000
22.244304	2.973872	41.732000
22.270115	2.967143	41.887000
22.469140	2.971559	41.933000
22.494547	2.968319	42.301000
