Sample	2mm tape 
date	07/01/2025
	
Temperature (K)	77.00
Angle (deg.)	0.000000
field / T	0.000000
	
		
Approx. trace time (s)	120.0	
		
Current / A	V1  -sample/ uV	time/s
-0.018344	-0.923577	0.000000
-0.018648	-0.930384	0.137000
-0.018174	-0.929240	0.183000
-0.018563	-0.924522	0.228000
-0.017894	-0.918015	0.274000
-0.018271	-0.909101	0.320000
-0.018052	-0.899766	0.366000
-0.018302	-0.887846	0.412000
-0.018916	-0.875023	0.457000
-0.018198	-0.860384	0.504000
-0.019135	-0.844333	0.550000
-0.017796	-0.826286	0.596000
0.113247	-0.651854	0.641000
0.136559	-0.632211	1.009000
0.160621	-0.608266	1.055000
0.245236	-0.583761	1.102000
0.270726	-0.508447	1.256000
0.295587	-0.491416	1.302000
0.320517	-0.478208	1.348000
0.345150	-0.469206	1.393000
0.369886	-0.463021	1.440000
0.394789	-0.459790	1.486000
0.418987	-0.458448	1.531000
0.444240	-0.457481	1.577000
0.469435	-0.458478	1.623000
0.494853	-0.460995	1.670000
0.582318	-0.474625	1.716000
0.607475	-0.485034	1.877000
0.632635	-0.492749	1.924000
0.656807	-0.503699	1.970000
0.681635	-0.516858	2.015000
0.706816	-0.531935	2.062000
0.731463	-0.550566	2.108000
0.756948	-0.571332	2.154000
0.955666	-0.593812	2.199000
0.980873	-0.810265	2.567000
1.006285	-0.833543	2.614000
1.031465	-0.853979	2.659000
1.055333	-0.870625	2.706000
1.080093	-0.881393	2.752000
1.178089	-0.864173	2.798000
1.202552	-0.851928	2.977000
1.227300	-0.834953	3.024000
1.252185	-0.814687	3.070000
1.277883	-0.793145	3.116000
1.302767	-0.769357	3.162000
1.327835	-0.743947	3.207000
1.353102	-0.716444	3.253000
1.435573	-0.685022	3.300000
1.460632	-0.591937	3.455000
1.485584	-0.568357	3.501000
1.511470	-0.549696	3.547000
1.536249	-0.537433	3.593000
1.561605	-0.533054	3.639000
1.586485	-0.535343	3.685000
1.610963	-0.547628	3.731000
1.635515	-0.567004	3.777000
1.660626	-0.588794	3.824000
1.685914	-0.609243	3.870000
1.772810	-0.662214	3.916000
1.798179	-0.661298	4.077000
1.823486	-0.647896	4.123000
1.848967	-0.630438	4.169000
1.873736	-0.612875	4.216000
1.898689	-0.594518	4.261000
1.923970	-0.576074	4.308000
1.947881	-0.559662	4.354000
2.032173	-0.542020	4.400000
2.056968	-0.486354	4.554000
2.082111	-0.471569	4.601000
2.107514	-0.455738	4.647000
2.132634	-0.442189	4.693000
2.157236	-0.430775	4.739000
2.181461	-0.420830	4.785000
2.206667	-0.409305	4.831000
2.231829	-0.398866	4.877000
2.256483	-0.386167	4.924000
2.282034	-0.371125	4.970000
2.369410	-0.317211	5.016000
2.394078	-0.305905	5.177000
2.419214	-0.292111	5.223000
2.444342	-0.279274	5.269000
2.468294	-0.267176	5.315000
2.493200	-0.254419	5.361000
2.518401	-0.239643	5.407000
2.543642	-0.225025	5.454000
2.627975	-0.207612	5.500000
2.653305	-0.156440	5.655000
2.678144	-0.145155	5.700000
2.702513	-0.135379	5.747000
2.727243	-0.124739	5.793000
2.752284	-0.112211	5.839000
2.777034	-0.098108	5.885000
2.802543	-0.081186	5.931000
2.827471	-0.064864	5.977000
2.852474	-0.048168	6.023000
2.877886	-0.031506	6.070000
3.079777	0.021452	6.116000
3.104699	0.014476	6.489000
3.129282	0.004140	6.535000
3.213744	-0.014915	6.581000
3.238079	-0.080797	6.737000
3.262919	-0.088948	6.782000
3.288442	-0.099193	6.828000
3.313599	-0.104366	6.875000
3.338620	-0.112342	6.921000
3.363524	-0.115224	6.966000
3.388681	-0.118718	7.013000
3.412864	-0.122201	7.058000
3.437963	-0.124970	7.105000
3.462473	-0.128454	7.151000
3.560502	-0.138389	7.197000
3.585004	-0.145185	7.377000
3.610198	-0.148428	7.423000
3.635644	-0.148358	7.470000
3.660394	-0.144101	7.515000
3.685493	-0.137014	7.561000
3.710655	-0.128044	7.608000
3.736286	-0.117733	7.654000
3.934699	-0.106664	7.700000
3.958898	-0.098108	8.067000
3.983389	-0.105155	8.113000
4.008381	-0.111680	8.159000
4.033935	-0.119318	8.205000
4.058909	-0.125676	8.251000
4.155916	-0.072516	8.297000
4.180923	-0.175847	8.477000
4.206192	-0.170831	8.522000
4.231059	-0.179790	8.569000
4.255820	-0.190211	8.614000
4.280814	-0.205391	8.660000
4.305295	-0.225951	8.707000
4.330232	-0.247122	8.753000
4.414006	-0.267247	8.798000
4.439919	-0.327638	8.954000
4.464885	-0.331681	9.000000
4.490155	-0.328333	9.046000
4.514594	-0.322192	9.092000
4.538761	-0.312862	9.138000
4.563861	-0.303333	9.184000
4.588471	-0.295110	9.230000
4.614074	-0.283538	9.276000
4.639034	-0.273769	9.322000
4.664069	-0.263738	9.368000
4.752335	-0.238253	9.415000
4.776829	-0.238133	9.577000
4.802437	-0.236937	9.623000
4.827064	-0.235941	9.669000
4.852239	-0.237287	9.715000
4.876373	-0.239510	9.761000
4.901503	-0.243393	9.808000
4.926733	-0.246961	9.854000
5.010780	-0.248468	9.900000
5.035741	-0.259044	10.055000
5.060620	-0.264149	10.101000
5.085289	-0.271172	10.146000
5.109547	-0.279900	10.193000
5.134811	-0.287598	10.239000
5.160135	-0.295450	10.285000
5.185511	-0.300055	10.332000
5.211064	-0.304034	10.377000
5.235596	-0.306537	10.424000
5.261419	-0.311412	10.470000
5.348128	-0.354479	10.517000
5.373099	-0.374965	10.677000
5.397402	-0.384670	10.723000
5.421867	-0.389137	10.769000
5.447331	-0.388897	10.815000
5.471962	-0.385744	10.861000
5.497653	-0.380385	10.907000
5.522755	-0.373638	10.954000
5.606584	-0.365980	10.999000
5.631475	-0.341491	11.155000
5.655585	-0.336977	11.201000
5.680937	-0.335025	11.247000
5.705913	-0.333628	11.293000
5.731474	-0.334033	11.339000
5.756408	-0.335961	11.385000
5.781843	-0.340555	11.432000
5.807081	-0.346225	11.478000
5.831295	-0.355996	11.524000
5.856280	-0.368503	11.570000
6.058594	-0.409456	11.616000
6.083278	-0.404435	11.988000
6.107546	-0.393314	12.035000
6.192310	-0.379742	12.081000
6.217632	-0.328223	12.237000
6.242647	-0.309724	12.283000
6.267833	-0.289084	12.329000
6.293106	-0.268178	12.376000
6.317789	-0.247802	12.421000
6.342063	-0.229269	12.467000
6.366137	-0.210580	12.514000
6.391562	-0.191136	12.559000
6.416947	-0.175435	12.605000
6.442262	-0.162413	12.651000
6.538938	-0.118024	12.697000
6.564278	-0.113476	12.876000
6.588803	-0.108168	12.923000
6.614325	-0.103821	12.969000
6.639403	-0.101392	13.015000
6.664319	-0.096434	13.061000
6.688216	-0.093171	13.107000
6.713009	-0.090333	13.152000
6.911769	-0.089307	13.199000
6.937177	-0.141713	13.565000
6.962364	-0.152623	13.612000
6.987082	-0.164501	13.658000
7.012623	-0.172943	13.704000
7.037252	-0.180361	13.751000
7.135093	-0.205030	13.797000
7.159845	-0.209874	13.977000
7.184823	-0.208158	14.023000
7.209872	-0.206356	14.069000
7.233646	-0.202857	14.115000
7.258459	-0.198598	14.160000
7.283901	-0.194985	14.206000
7.309038	-0.193729	14.253000
7.393123	-0.194224	14.299000
7.418471	-0.211847	14.454000
7.443023	-0.222341	14.500000
7.467391	-0.231396	14.546000
7.493110	-0.241341	14.592000
7.518032	-0.250910	14.638000
7.543483	-0.259364	14.684000
7.568439	-0.265820	14.730000
7.593318	-0.273343	14.776000
7.618479	-0.278218	14.822000
7.643215	-0.280925	14.868000
7.732084	-0.244384	14.915000
7.756727	-0.228884	15.077000
7.781448	-0.210891	15.123000
7.806248	-0.192743	15.169000
7.830898	-0.175646	15.216000
7.856227	-0.160605	15.262000
7.880932	-0.146330	15.308000
7.906548	-0.130544	15.354000
7.989845	-0.115275	15.400000
8.014575	-0.062396	15.555000
8.038950	-0.046100	15.601000
8.064473	-0.032267	15.646000
8.089641	-0.016970	15.692000
8.114866	-0.005889	15.739000
8.140453	0.005735	15.785000
8.164882	0.015674	15.831000
8.190302	0.026244	15.878000
8.214704	0.038810	15.924000
8.239399	0.051487	15.970000
8.326798	0.074155	16.017000
8.351695	0.060071	16.177000
8.376541	0.043308	16.223000
8.401685	0.019749	16.270000
8.427309	-0.005466	16.316000
8.451994	-0.032652	16.361000
8.477669	-0.062816	16.408000
8.502129	-0.092086	16.454000
8.584933	-0.122510	16.500000
8.610231	-0.193028	16.654000
8.635108	-0.204094	16.700000
8.660610	-0.210660	16.747000
8.685290	-0.213954	16.792000
8.710461	-0.211987	16.839000
8.734769	-0.210560	16.885000
8.759267	-0.205671	16.930000
8.784620	-0.201531	16.977000
8.809534	-0.197752	17.022000
8.834933	-0.193769	17.069000
9.037107	-0.242737	17.115000
9.061956	-0.256611	17.489000
9.086589	-0.266701	17.535000
9.172049	-0.275456	17.580000
9.197094	-0.297812	17.737000
9.221672	-0.297812	17.782000
9.246222	-0.295480	17.828000
9.270536	-0.290945	17.874000
9.295434	-0.284319	17.920000
9.320438	-0.277727	17.966000
9.345319	-0.270085	18.012000
9.370934	-0.261636	18.058000
9.395859	-0.251110	18.104000
9.421192	-0.241661	18.150000
9.444868	-0.231952	18.196000
9.529313	-0.193538	18.241000
9.554783	-0.184965	18.398000
9.579679	-0.173123	18.444000
9.605291	-0.160729	18.490000
9.630170	-0.148929	18.537000
9.655636	-0.134755	18.583000
9.680531	-0.118719	18.629000
9.882732	-0.102966	18.676000
9.907785	-0.001301	19.049000
9.932759	0.004270	19.095000
9.957389	0.006900	19.141000
9.981970	0.004000	19.187000
10.006899	-0.000808	19.234000
10.031924	-0.006935	19.280000
10.116505	-0.041592	19.326000
10.141919	-0.055106	19.482000
10.167301	-0.063649	19.527000
10.192073	-0.068059	19.574000
10.215855	-0.070836	19.619000
10.240810	-0.072656	19.666000
10.266027	-0.074159	19.711000
10.362941	-0.073546	19.757000
10.387649	-0.067633	19.937000
10.412780	-0.063046	19.983000
10.438467	-0.056930	20.030000
10.463137	-0.048929	20.075000
10.488498	-0.040318	20.122000
10.513121	-0.028403	20.167000
10.538560	-0.014140	20.213000
10.562741	0.000142	20.259000
10.587202	0.019138	20.306000
10.612718	0.038510	20.352000
10.709631	0.118129	20.398000
10.734559	0.130452	20.577000
10.759596	0.145903	20.623000
10.785011	0.158090	20.669000
10.809908	0.168257	20.716000
10.835170	0.178191	20.762000
10.860199	0.184854	20.808000
10.884819	0.192466	20.854000
10.968079	0.198517	20.900000
10.993170	0.237221	21.055000
11.018991	0.252121	21.101000
11.043823	0.267577	21.147000
11.068770	0.283801	21.194000
11.094185	0.300343	21.240000
11.118386	0.315735	21.286000
11.142593	0.332308	21.331000
11.167308	0.350035	21.377000
11.192508	0.367452	21.423000
11.218226	0.385098	21.469000
11.305380	0.435459	21.515000
11.330431	0.444975	21.677000
11.356097	0.455455	21.724000
11.380962	0.465955	21.769000
11.406187	0.472022	21.816000
11.431185	0.477130	21.862000
11.455168	0.480181	21.908000
11.480058	0.480335	21.954000
11.564145	0.480415	21.999000
11.589202	0.463777	22.154000
11.614592	0.457736	22.201000
11.639517	0.450198	22.246000
11.664371	0.443061	22.293000
11.688645	0.434810	22.339000
11.713806	0.427050	22.385000
11.738940	0.415534	22.431000
11.763777	0.401551	22.477000
11.788716	0.387682	22.523000
11.814152	0.366732	22.570000
12.016347	0.137389	22.615000
12.040970	0.103119	22.989000
12.066347	0.075856	23.035000
12.150593	0.049843	23.081000
12.175430	-0.030098	23.236000
12.200545	-0.053827	23.284000
12.224802	-0.077279	23.330000
12.249812	-0.099363	23.375000
12.274717	-0.120462	23.421000
12.300298	-0.139804	23.467000
12.324990	-0.162393	23.513000
12.350004	-0.182338	23.559000
12.374221	-0.202337	23.605000
12.399117	-0.222812	23.651000
12.497384	-0.302292	23.697000
12.522398	-0.324409	23.877000
12.546359	-0.342577	23.923000
12.571566	-0.359273	23.969000
12.596491	-0.373758	24.015000
12.621668	-0.392670	24.061000
12.646768	-0.411501	24.107000
12.672329	-0.431236	24.153000
12.870709	-0.448631	24.199000
12.896197	-0.526357	24.566000
12.920471	-0.524982	24.613000
12.945283	-0.522365	24.659000
12.969892	-0.519300	24.705000
12.995311	-0.515587	24.751000
13.092324	-0.491546	24.798000
13.117094	-0.487249	24.977000
13.142621	-0.478908	25.024000
13.167685	-0.467773	25.069000
13.193082	-0.452475	25.116000
13.218171	-0.434235	25.162000
13.243079	-0.415948	25.208000
13.267813	-0.395923	25.254000
13.350919	-0.375729	25.300000
13.376136	-0.307392	25.455000
13.401236	-0.289780	25.500000
13.426452	-0.275121	25.546000
13.451354	-0.259985	25.593000
13.477152	-0.245926	25.640000
13.501111	-0.229044	25.685000
13.525868	-0.212528	25.732000
13.550719	-0.196382	25.777000
13.575511	-0.182078	25.823000
13.600585	-0.168469	25.869000
13.688288	-0.121577	25.915000
13.713499	-0.115266	26.077000
13.738547	-0.107195	26.123000
13.764011	-0.102113	26.169000
13.789097	-0.098099	26.216000
13.813052	-0.099093	26.262000
13.837901	-0.100167	26.307000
13.862812	-0.104726	26.353000
13.947323	-0.113487	26.400000
13.972484	-0.148729	26.554000
13.997557	-0.161199	26.601000
14.022016	-0.173184	26.647000
14.046719	-0.186512	26.693000
14.071507	-0.197008	26.739000
14.096345	-0.210761	26.786000
14.121864	-0.223134	26.831000
14.146333	-0.237097	26.876000
14.171612	-0.251452	26.922000
14.196336	-0.265585	26.969000
14.284662	-0.319895	27.014000
14.310223	-0.336816	27.177000
14.335069	-0.351471	27.224000
14.359718	-0.366016	27.270000
14.384478	-0.381096	27.316000
14.409122	-0.395119	27.363000
14.434252	-0.406743	27.409000
14.459024	-0.417403	27.455000
14.543674	-0.426948	27.501000
14.568566	-0.442086	27.655000
14.592731	-0.441457	27.700000
14.617682	-0.438632	27.748000
14.642375	-0.433604	27.793000
14.667834	-0.427542	27.840000
14.692882	-0.417959	27.885000
14.718350	-0.406049	27.933000
14.743390	-0.395339	27.978000
14.768455	-0.381236	28.024000
14.793319	-0.365966	28.071000
14.995799	-0.218944	28.116000
15.020917	-0.206136	28.489000
15.046114	-0.189446	28.536000
15.129334	-0.175646	28.582000
15.154753	-0.134806	28.737000
15.179949	-0.127730	28.784000
15.204307	-0.118294	28.829000
15.229928	-0.109993	28.875000
15.254821	-0.101832	28.922000
15.280139	-0.090932	28.968000
15.304479	-0.079649	29.013000
15.329188	-0.066870	29.060000
15.354668	-0.055072	29.106000
15.379396	-0.041883	29.152000
15.475961	-0.001008	29.198000
15.500911	0.007734	29.377000
15.526396	0.019727	29.424000
15.551329	0.037374	29.470000
15.576603	0.058093	29.515000
15.601675	0.082553	29.561000
15.626951	0.108014	29.608000
15.651923	0.134215	29.655000
15.849588	0.164608	29.700000
15.874814	0.389960	30.067000
15.899665	0.418498	30.113000
15.924966	0.447839	30.159000
15.949950	0.481035	30.205000
15.975277	0.512772	30.251000
16.072221	0.615588	30.297000
16.097029	0.630738	30.477000
16.122369	0.647430	30.523000
16.147217	0.659242	30.569000
16.172757	0.669643	30.615000
16.196829	0.679848	30.662000
16.221681	0.686915	30.708000
16.246503	0.698513	30.754000
16.330853	0.707273	30.800000
16.356533	0.732157	30.955000
16.381201	0.736276	31.001000
16.406555	0.738585	31.047000
16.430487	0.739519	31.093000
16.455456	0.741144	31.140000
16.480362	0.746506	31.185000
16.505389	0.752899	31.231000
16.530581	0.763749	31.277000
16.556096	0.773889	31.324000
16.580965	0.788112	31.370000
16.668551	0.826853	31.416000
16.693770	0.832434	31.577000
16.718161	0.843405	31.624000
16.742431	0.855019	31.670000
16.767153	0.869857	31.715000
16.792585	0.882152	31.761000
16.818008	0.895755	31.808000
16.842931	0.907216	31.854000
16.926761	0.920449	31.900000
16.951404	0.948313	32.054000
16.975941	0.951661	32.101000
17.000933	0.955855	32.147000
17.025605	0.958818	32.193000
17.051400	0.965060	32.239000
17.075982	0.969969	32.284000
17.101335	0.978914	32.331000
17.126554	0.987267	32.376000
17.150936	0.996937	32.423000
17.175452	1.005916	32.469000
17.264209	1.027244	32.515000
17.288667	1.025706	32.677000
17.312845	1.027759	32.723000
17.338201	1.028390	32.769000
17.362974	1.027759	32.815000
17.388233	1.027414	32.861000
17.413525	1.027364	32.907000
17.438176	1.026833	32.953000
17.521474	1.025376	32.998000
17.546741	1.008579	33.154000
17.571876	1.000901	33.200000
17.597131	0.989369	33.247000
17.622035	0.978372	33.293000
17.647417	0.965284	33.339000
17.672062	0.953462	33.384000
17.697366	0.940049	33.431000
17.721715	0.927405	33.477000
17.746774	0.916800	33.524000
17.771936	0.905391	33.570000
17.974615	0.853654	33.615000
17.998968	0.846183	33.990000
18.023331	0.844948	34.036000
18.108507	0.842670	34.081000
18.133484	0.839791	34.237000
18.158794	0.839126	34.282000
18.183905	0.836559	34.329000
18.208632	0.837623	34.375000
18.233212	0.837763	34.421000
18.257666	0.842261	34.468000
18.283143	0.843948	34.514000
18.308239	0.849636	34.560000
18.333508	0.855310	34.607000
18.358481	0.863240	34.652000
18.455273	0.912676	34.699000
18.480181	0.925414	34.877000
18.505684	0.940825	34.924000
18.530909	0.955179	34.970000
18.555489	0.970620	35.015000
18.579738	0.983838	35.061000
18.604417	0.998208	35.108000
18.629669	1.009755	35.154000
18.828474	1.024229	35.200000
18.853612	1.113236	35.567000
18.878866	1.120135	35.613000
18.903978	1.123949	35.659000
18.929408	1.123559	35.705000
18.954227	1.120979	35.752000
19.051763	1.084395	35.798000
19.076604	1.067283	35.977000
19.101523	1.049875	36.024000
19.126133	1.032323	36.070000
19.150478	1.010560	36.116000
19.176229	0.989489	36.162000
19.200866	0.965444	36.209000
19.226320	0.946194	36.255000
19.310571	0.926910	36.301000
19.335600	0.874229	36.456000
19.359862	0.863481	36.502000
19.384510	0.853694	36.548000
19.409843	0.845974	36.594000
19.434597	0.840595	36.640000
19.459835	0.836737	36.686000
19.485362	0.833143	36.731000
19.510074	0.831770	36.777000
19.535262	0.832825	36.824000
19.559622	0.832765	36.871000
19.647006	0.853945	36.916000
19.671257	0.858182	37.077000
19.696082	0.869143	37.124000
19.721059	0.875949	37.170000
19.746782	0.885954	37.215000
19.771482	0.894630	37.261000
19.796997	0.902841	37.308000
19.821947	0.911821	37.354000
19.904905	0.918707	37.400000
19.929821	0.941115	37.554000
19.955424	0.947782	37.601000
19.980564	0.956516	37.647000
20.005568	0.963733	37.693000
20.030898	0.970965	37.739000
20.055438	0.977938	37.785000
20.079942	0.983518	37.831000
20.104938	0.991260	37.877000
20.129347	0.995621	37.923000
20.154689	1.000335	37.969000
20.242000	1.005384	38.015000
20.267217	1.000690	38.177000
20.292507	0.996496	38.223000
20.317165	0.992707	38.270000
20.342881	0.986475	38.316000
20.367445	0.979238	38.361000
20.392568	0.971636	38.408000
20.416862	0.961110	38.454000
20.500436	0.951019	38.499000
20.526266	0.903785	38.655000
20.551272	0.888417	38.701000
20.576989	0.871071	38.747000
20.601147	0.856484	38.793000
20.626307	0.839095	38.840000
20.650191	0.826237	38.885000
20.675241	0.816946	38.930000
20.700239	0.808470	38.977000
20.725212	0.803644	39.023000
20.750988	0.797100	39.069000
20.952556	0.713979	39.115000
20.978230	0.696944	39.490000
21.003157	0.687065	39.536000
21.087733	0.675258	39.582000
21.112754	0.635617	39.737000
21.137189	0.626679	39.783000
21.162211	0.619191	39.829000
21.186523	0.614696	39.876000
21.212236	0.609406	39.922000
21.237437	0.605207	39.968000
21.262411	0.600301	40.014000
21.287484	0.597505	40.060000
21.312424	0.596378	40.106000
21.337595	0.594811	40.152000
21.434578	0.597344	40.199000
21.459637	0.593604	40.377000
21.483788	0.592989	40.424000
21.508508	0.592759	40.469000
21.533064	0.593184	40.516000
21.558631	0.592138	40.561000
21.583320	0.593705	40.608000
21.608712	0.595887	40.654000
21.807642	0.600532	40.700000
21.832692	0.582802	41.067000
21.858207	0.582752	41.113000
21.882590	0.586297	41.160000
21.907318	0.594511	41.206000
21.931966	0.610777	41.252000
22.029723	0.703321	41.298000
22.054181	0.726359	41.477000
22.079283	0.752367	41.524000
22.104506	0.776337	41.570000
22.129773	0.799419	41.616000
22.155009	0.822284	41.662000
22.180059	0.841224	41.708000
22.205019	0.860851	41.755000
22.287618	0.878257	41.800000
22.312868	0.923281	41.955000
22.338263	0.930088	42.001000
22.362981	0.934642	42.047000
22.388148	0.939407	42.092000
22.413094	0.940864	42.139000
22.437507	0.943206	42.184000
22.462217	0.945529	42.230000
22.486385	0.946885	42.276000
22.512286	0.949572	42.323000
22.537365	0.952937	42.369000
22.625250	0.977971	42.415000
22.650461	0.982665	42.577000
22.675855	0.994447	42.624000
22.700801	1.003091	42.669000
22.725358	1.012201	42.715000
22.750492	1.020650	42.760000
22.774081	1.029074	42.806000
22.799067	1.036512	42.852000
