Sample	2mm tape 
date	07/01/2025
	
Temperature (K)	77.00
Angle (deg.)	0.000000
field / T	0.300000
	
		
Approx. trace time (s)	120.0	
		
Current / A	V1  -sample/ uV	time/s
-0.018296	1.169755	0.000000
-0.018707	1.171140	0.046000
-0.018051	1.174473	0.092000
-0.018903	1.171529	0.137000
-0.018461	1.171874	0.294000
-0.018143	1.170659	0.339000
-0.018333	1.170595	0.385000
-0.017897	1.166922	0.431000
-0.018523	1.166763	0.477000
-0.018339	1.164958	0.523000
0.080063	1.158152	0.570000
0.104326	1.147972	0.951000
0.129180	1.141210	0.997000
0.152467	1.140426	1.042000
0.178756	1.136029	1.088000
0.202690	1.134284	1.134000
0.228145	1.134164	1.180000
0.317988	1.133430	1.226000
0.342581	1.131390	1.393000
0.368342	1.133718	1.438000
0.392805	1.137003	1.484000
0.418411	1.134344	1.530000
0.443332	1.130931	1.576000
0.467915	1.134524	1.622000
0.559624	1.134484	1.668000
0.584968	1.138811	1.838000
0.609518	1.139232	1.885000
0.635158	1.136227	1.930000
0.660575	1.136693	1.977000
0.685809	1.139282	2.023000
0.709922	1.130891	2.070000
0.734321	1.136773	2.115000
0.759058	1.131560	2.161000
0.783760	1.128242	2.207000
0.809535	1.125698	2.253000
0.834800	1.129296	2.299000
0.919162	1.114390	2.346000
0.944555	1.115634	2.502000
0.969109	1.119267	2.548000
0.993274	1.119911	2.594000
1.017619	1.119971	2.639000
1.043197	1.124729	2.685000
1.068034	1.120682	2.731000
1.155523	1.123390	2.775000
1.180122	1.125360	2.938000
1.205658	1.134664	2.983000
1.230603	1.135378	3.030000
1.254506	1.140667	3.076000
1.279716	1.141581	3.122000
1.304451	1.139442	3.168000
1.329851	1.140476	3.214000
1.355411	1.140426	3.261000
1.380193	1.149521	3.307000
1.405256	1.142220	3.353000
1.430473	1.143869	3.400000
1.514461	1.141035	3.446000
1.539070	1.138901	3.602000
1.564107	1.139161	3.648000
1.589193	1.135668	3.694000
1.614265	1.138037	3.740000
1.639561	1.137906	3.786000
1.664507	1.134363	3.832000
1.751808	1.133888	3.878000
1.776631	1.138821	4.038000
1.800828	1.140975	4.084000
1.825508	1.136852	4.130000
1.850737	1.138077	4.176000
1.875305	1.135093	4.222000
1.900503	1.126443	4.268000
1.925993	1.134493	4.314000
1.951039	1.130840	4.361000
1.976372	1.131311	4.407000
2.000353	1.139610	4.453000
2.024765	1.140155	4.499000
2.224685	1.174643	4.545000
2.249624	1.178316	4.914000
2.346437	1.184359	4.959000
2.371183	1.211702	5.138000
2.396338	1.215911	5.184000
2.421413	1.223536	5.230000
2.446862	1.242801	5.276000
2.471710	1.246525	5.322000
2.497404	1.253461	5.368000
2.521638	1.260197	5.414000
2.545866	1.265515	5.460000
2.571082	1.274860	5.506000
2.595636	1.280621	5.552000
2.620963	1.284583	5.598000
2.705724	1.293128	5.645000
2.730904	1.296461	5.800000
2.755388	1.305212	5.846000
2.779506	1.309870	5.892000
2.804526	1.313062	5.938000
2.829317	1.314297	5.983000
2.854417	1.313122	6.030000
3.057245	1.318419	6.076000
3.081653	1.319948	6.450000
3.107280	1.308345	6.497000
3.132258	1.314337	6.543000
3.157890	1.315792	6.589000
3.182299	1.312198	6.635000
3.208204	1.313573	6.681000
3.296745	1.315342	6.728000
3.322017	1.310925	6.892000
3.346594	1.310129	6.938000
3.372123	1.309590	6.984000
3.397211	1.308876	7.031000
3.421386	1.307191	7.077000
3.446236	1.307652	7.123000
3.538272	1.307432	7.169000
3.563727	1.310434	7.338000
3.588793	1.308656	7.384000
3.613521	1.309920	7.431000
3.637719	1.304572	7.476000
3.662410	1.307722	7.523000
3.688147	1.306448	7.568000
3.713029	1.307451	7.615000
3.738663	1.302514	7.662000
3.763401	1.299660	7.707000
3.788517	1.299965	7.754000
3.800466	1.293719	7.799000
3.904714	1.289875	7.969000
3.929721	1.297585	8.015000
3.954797	1.292753	8.061000
3.979900	1.291250	8.107000
4.004767	1.286362	8.152000
4.029583	1.292713	8.198000
4.053517	1.287757	8.244000
4.137180	1.288741	8.290000
4.162446	1.368270	8.444000
4.187301	1.292364	8.491000
4.212322	1.285792	8.537000
4.237400	1.294232	8.583000
4.262162	1.295967	8.629000
4.286629	1.297391	8.675000
4.312065	1.296821	8.721000
4.337011	1.299689	8.767000
4.361635	1.299290	8.813000
4.386998	1.298635	8.859000
4.412014	1.298026	8.905000
4.495674	1.301589	8.950000
4.520417	1.296831	9.107000
4.545761	1.294503	9.153000
4.570824	1.295827	9.199000
4.595707	1.290609	9.245000
4.621305	1.289100	9.292000
4.646355	1.281074	9.338000
4.729190	1.282519	9.383000
4.754229	1.282298	9.538000
4.779242	1.281515	9.584000
4.804292	1.275663	9.630000
4.829834	1.274559	9.677000
4.854970	1.275128	9.723000
4.879827	1.276322	9.768000
4.905129	1.272874	9.815000
4.929170	1.274987	9.860000
4.953793	1.278372	9.907000
4.978984	1.282649	9.953000
5.004328	1.281194	9.999000
5.203586	1.261120	10.046000
5.228791	1.262975	10.414000
5.325081	1.266947	10.460000
5.350045	1.257512	10.638000
5.375765	1.256422	10.685000
5.400793	1.253819	10.730000
5.425851	1.250971	10.776000
5.450724	1.249212	10.823000
5.475065	1.248542	10.869000
5.499703	1.242870	10.915000
5.524956	1.250237	10.961000
5.550202	1.248652	11.007000
5.574854	1.247668	11.053000
5.600102	1.247137	11.099000
5.684968	1.248853	11.145000
5.709608	1.248964	11.301000
5.734267	1.253110	11.348000
5.758897	1.255890	11.394000
5.784273	1.245809	11.440000
5.809476	1.249332	11.486000
5.834772	1.252547	11.531000
6.036008	1.253979	11.578000
6.060984	1.243485	11.950000
6.086501	1.240222	11.996000
6.111202	1.246863	12.042000
6.136676	1.249647	12.088000
6.161590	1.245110	12.134000
6.185933	1.246194	12.181000
6.275938	1.238823	12.227000
6.301228	1.224794	12.392000
6.325707	1.219724	12.439000
6.349911	1.220408	12.485000
6.375009	1.212017	12.531000
6.399815	1.213551	12.577000
6.425259	1.211363	12.623000
6.517409	1.202537	12.669000
6.541490	1.197545	12.837000
6.565841	1.188555	12.884000
6.590989	1.188755	12.929000
6.616573	1.187140	12.976000
6.641244	1.184516	13.022000
6.666600	1.182863	13.068000
6.691310	1.184506	13.114000
6.716237	1.167396	13.160000
6.740836	1.173738	13.206000
6.765458	1.167907	13.252000
6.791079	1.162899	13.298000
6.875368	1.159126	13.344000
6.900881	1.148567	13.500000
6.925803	1.148737	13.546000
6.950580	1.144200	13.592000
6.974950	1.142384	13.638000
6.998837	1.139412	13.684000
7.024192	1.136893	13.728000
7.111719	1.131191	13.774000
7.137125	1.112057	13.938000
7.161914	1.112131	13.983000
7.187058	1.108917	14.029000
7.212367	1.104079	14.076000
7.237209	1.105694	14.122000
7.262646	1.105564	14.168000
7.286895	1.094834	14.214000
7.311565	1.095499	14.260000
7.336492	1.097962	14.306000
7.361259	1.088412	14.352000
7.386643	1.085545	14.398000
7.471037	1.082572	14.444000
7.496454	1.067392	14.599000
7.520899	1.068498	14.645000
7.545384	1.067282	14.692000
7.570704	1.063259	14.738000
7.595772	1.061562	14.783000
7.620797	1.057693	14.830000
7.708616	1.050396	14.875000
7.733932	1.041208	15.038000
7.759074	1.043510	15.085000
7.784994	1.041648	15.131000
7.809406	1.035757	15.177000
7.834175	1.030743	15.223000
7.858305	1.029948	15.269000
7.883429	1.031959	15.315000
7.908677	1.028701	15.362000
7.933801	1.023445	15.407000
7.958889	1.027124	15.454000
7.984236	1.019092	15.499000
8.183052	1.028140	15.546000
8.209050	1.025112	15.914000
8.305137	1.024096	15.960000
8.329765	1.018516	16.138000
8.354372	1.024581	16.183000
8.378631	1.012900	16.229000
8.403443	1.030482	16.275000
8.428809	1.020598	16.321000
8.453474	1.026588	16.367000
8.478754	1.028270	16.413000
8.504048	1.030237	16.459000
8.528608	1.034881	16.505000
8.553906	1.037929	16.552000
8.578631	1.039771	16.598000
8.662519	1.058619	16.644000
8.687575	1.060355	16.799000
8.712782	1.059735	16.845000
8.737918	1.066417	16.891000
8.762724	1.068358	16.937000
8.788033	1.071746	16.982000
8.811999	1.067673	17.029000
9.015456	1.079083	17.075000
9.040784	1.102674	17.450000
9.065296	1.104509	17.497000
9.090020	1.104489	17.542000
9.114577	1.101820	17.588000
9.139783	1.100914	17.634000
9.165263	1.098262	17.681000
9.254478	1.109465	17.727000
9.279535	1.106577	17.893000
9.304061	1.110967	17.939000
9.329218	1.103693	17.984000
9.354608	1.098072	18.031000
9.379952	1.102309	18.076000
9.404916	1.107952	18.122000
9.495490	1.104982	18.169000
9.520504	1.111215	18.338000
9.545598	1.100073	18.384000
9.571138	1.110251	18.430000
9.596360	1.113052	18.477000
9.621612	1.116798	18.523000
9.646687	1.109145	18.570000
9.671977	1.113486	18.615000
9.696357	1.113506	18.662000
9.721358	1.113806	18.708000
9.746141	1.120041	18.755000
9.771353	1.117742	18.801000
9.856088	1.121994	18.846000
9.881346	1.119555	19.002000
9.906213	1.123604	19.048000
9.930422	1.121005	19.094000
9.954928	1.124728	19.139000
9.979367	1.127876	19.185000
10.004578	1.130325	19.230000
10.091557	1.136432	19.276000
10.116718	1.147941	19.438000
10.141878	1.153433	19.484000
10.166806	1.157245	19.530000
10.192005	1.156331	19.576000
10.216636	1.156406	19.622000
10.241327	1.158520	19.669000
10.266323	1.161454	19.715000
10.291409	1.152239	19.761000
10.316357	1.154337	19.807000
10.341485	1.163247	19.852000
10.366865	1.168670	19.899000
10.449998	1.181609	19.945000
10.474381	1.178725	20.100000
10.500057	1.181369	20.146000
10.524821	1.184992	20.192000
10.550527	1.191693	20.239000
10.575255	1.186986	20.284000
10.600611	1.189699	20.331000
10.687813	1.192707	20.377000
10.713143	1.203612	20.538000
10.737515	1.203982	20.584000
10.761705	1.206904	20.630000
10.786564	1.205810	20.676000
10.811598	1.209758	20.722000
10.837215	1.214676	20.768000
10.862431	1.216624	20.815000
10.887567	1.220127	20.861000
10.913028	1.227134	20.907000
10.937833	1.231378	20.953000
10.962952	1.237488	21.000000
11.162138	1.269691	21.046000
11.186268	1.269781	21.414000
11.283578	1.267012	21.460000
11.307716	1.286936	21.638000
11.331922	1.288060	21.683000
11.357916	1.291298	21.730000
11.382783	1.290679	21.776000
11.408066	1.297545	21.822000
11.432889	1.297385	21.867000
11.458187	1.298850	21.914000
11.483122	1.302783	21.960000
11.507476	1.300968	22.006000
11.531952	1.308964	22.052000
11.557254	1.310423	22.098000
11.641792	1.318865	22.144000
11.667327	1.317430	22.300000
11.692261	1.321695	22.346000
11.717136	1.320639	22.392000
11.741361	1.321635	22.438000
11.766328	1.318151	22.484000
11.790827	1.319758	22.531000
11.994239	1.325819	22.577000
12.018793	1.346594	22.950000
12.042968	1.350587	22.996000
12.068797	1.354877	23.043000
12.093482	1.360457	23.089000
12.118843	1.364446	23.134000
12.143769	1.367644	23.180000
12.233283	1.374260	23.227000
12.258652	1.373155	23.393000
12.283502	1.374801	23.439000
12.309063	1.375997	23.485000
12.333714	1.387237	23.532000
12.358821	1.383529	23.577000
12.383755	1.391216	23.624000
12.474649	1.391437	23.670000
12.499589	1.392272	23.838000
12.525242	1.399740	23.884000
12.550521	1.398738	23.930000
12.575105	1.401211	23.977000
12.599813	1.396917	24.022000
12.623938	1.400355	24.069000
12.649276	1.401341	24.115000
12.674117	1.403268	24.161000
12.699002	1.401742	24.207000
12.724421	1.400455	24.253000
12.749403	1.403138	24.298000
12.833083	1.398703	24.344000
12.857829	1.399660	24.500000
12.882972	1.387858	24.547000
12.908183	1.377013	24.592000
12.933318	1.383314	24.638000
12.958069	1.376532	24.684000
12.982718	1.377363	24.729000
13.070696	1.370561	24.775000
13.095747	1.346664	24.937000
13.120290	1.348826	24.983000
13.144596	1.341449	25.029000
13.170082	1.342995	25.076000
13.195138	1.340163	25.123000
13.220079	1.338041	25.169000
13.245651	1.329347	25.215000
13.271147	1.330258	25.261000
13.296236	1.326339	25.308000
13.321249	1.319315	25.354000
13.345713	1.317750	25.399000
13.429282	1.312913	25.446000
13.454184	1.305867	25.602000
13.479978	1.301299	25.648000
13.505262	1.300105	25.694000
13.530504	1.298116	25.740000
13.555377	1.294802	25.787000
13.580030	1.283473	25.832000
13.666101	1.289966	25.879000
13.690622	1.290205	26.038000
13.715754	1.287407	26.084000
13.740195	1.287287	26.130000
13.765736	1.286967	26.176000
13.790659	1.283864	26.221000
13.816225	1.284134	26.268000
13.841374	1.280441	26.314000
13.865856	1.284748	26.360000
13.890418	1.283473	26.406000
13.914646	1.280441	26.452000
13.940340	1.285842	26.498000
14.139686	1.300404	26.544000
14.164440	1.302322	26.913000
14.260933	1.310243	26.959000
14.286720	1.312507	27.138000
14.311607	1.314196	27.184000
14.336666	1.315631	27.230000
14.361747	1.318523	27.276000
14.386497	1.313092	27.322000
14.411115	1.323001	27.368000
14.435324	1.323366	27.414000
14.460508	1.321795	27.460000
14.485533	1.315100	27.505000
14.510648	1.322060	27.552000
14.535910	1.324047	27.598000
14.620532	1.323716	27.644000
14.645578	1.319838	27.800000
14.669344	1.322721	27.846000
14.694565	1.323131	27.892000
14.719523	1.325284	27.938000
14.744937	1.326750	27.984000
14.770510	1.328341	28.030000
14.971736	1.326390	28.075000
14.998129	1.331699	28.450000
15.023183	1.331559	28.497000
15.048509	1.332805	28.542000
15.073046	1.329102	28.589000
15.098378	1.331384	28.635000
15.123496	1.328761	28.681000
15.212630	1.327055	28.727000
15.238575	1.322290	28.893000
15.263404	1.317620	28.939000
15.287953	1.324332	28.985000
15.312422	1.318995	29.031000
15.336971	1.324482	29.077000
15.362585	1.329778	29.123000
15.454254	1.334332	29.169000
15.479390	1.329808	29.338000
15.503857	1.328702	29.384000
15.528504	1.331214	29.430000
15.553599	1.330693	29.476000
15.578770	1.335879	29.522000
15.603654	1.334512	29.569000
15.629011	1.335789	29.614000
15.653963	1.336019	29.660000
15.679149	1.333751	29.707000
15.703917	1.337560	29.752000
15.727806	1.334542	29.799000
15.813029	1.344262	29.845000
15.837527	1.343310	30.000000
15.862561	1.342315	30.047000
15.888058	1.341178	30.092000
15.912663	1.344082	30.137000
15.936586	1.342285	30.183000
15.960780	1.344466	30.229000
16.049801	1.354316	30.274000
16.074293	1.357855	30.438000
16.098997	1.361223	30.483000
16.124531	1.363170	30.530000
16.148988	1.367874	30.575000
16.174572	1.370187	30.621000
16.199701	1.369916	30.667000
16.225225	1.372619	30.714000
16.249294	1.376207	30.760000
16.273694	1.375877	30.806000
16.298616	1.381487	30.853000
16.324007	1.377538	30.898000
16.408514	1.394515	30.944000
16.433595	1.390626	31.100000
16.459092	1.390565	31.147000
16.482888	1.390706	31.192000
16.507492	1.386722	31.238000
16.532475	1.394845	31.283000
16.557314	1.390636	31.330000
16.644999	1.396616	31.376000
16.670009	1.392593	31.538000
16.695401	1.387888	31.584000
16.720138	1.384765	31.630000
16.745660	1.379415	31.676000
16.770601	1.382393	31.722000
16.795209	1.377699	31.768000
16.819775	1.376362	31.814000
16.844612	1.375887	31.860000
16.869687	1.373395	31.906000
16.895217	1.368480	31.952000
16.920023	1.370742	31.999000
17.119727	1.357784	32.044000
17.144752	1.351953	32.413000
17.241429	1.353209	32.459000
17.266391	1.352473	32.638000
17.292088	1.350172	32.683000
17.317117	1.348174	32.730000
17.341714	1.345307	32.777000
17.365890	1.344010	32.823000
17.390972	1.343790	32.869000
17.416109	1.339436	32.915000
17.440865	1.340422	32.961000
17.466534	1.344847	33.007000
17.491681	1.341168	33.053000
17.516363	1.337620	33.099000
17.599936	1.343740	33.145000
17.624430	1.338371	33.300000
17.649855	1.347118	33.346000
17.674772	1.345792	33.393000
17.700474	1.345137	33.439000
17.725610	1.339931	33.485000
17.750579	1.338635	33.531000
17.952032	1.339761	33.577000
17.977084	1.329166	33.950000
18.002458	1.322340	33.996000
18.026863	1.324692	34.042000
18.052067	1.321314	34.088000
18.076978	1.321284	34.134000
18.101579	1.321765	34.181000
18.192100	1.312507	34.227000
18.216714	1.309439	34.392000
18.240934	1.308314	34.439000
18.266053	1.310763	34.484000
18.290989	1.310008	34.530000
18.315968	1.315200	34.577000
18.341420	1.313312	34.623000
18.432369	1.315561	34.669000
18.457281	1.322871	34.838000
18.482657	1.324953	34.884000
18.507794	1.329707	34.931000
18.533028	1.335838	34.977000
18.558099	1.339506	35.023000
18.583405	1.341438	35.069000
18.608059	1.344867	35.115000
18.633305	1.352589	35.161000
18.657657	1.358124	35.207000
18.682458	1.355201	35.254000
18.707517	1.358709	35.300000
18.792177	1.362828	35.346000
18.817614	1.360892	35.502000
18.842546	1.358234	35.547000
18.866861	1.359766	35.593000
18.891044	1.363314	35.638000
18.915672	1.364055	35.684000
18.940747	1.363815	35.730000
19.028273	1.360817	35.776000
19.053152	1.367323	35.938000
19.078221	1.373123	35.983000
19.103745	1.369835	36.030000
19.128667	1.377143	36.076000
19.153792	1.376982	36.122000
19.177758	1.380581	36.168000
19.202553	1.382642	36.214000
19.227386	1.388293	36.260000
19.252664	1.389339	36.306000
19.277630	1.389439	36.352000
19.302741	1.389899	36.398000
19.386840	1.386751	36.443000
19.411483	1.390575	36.599000
19.436172	1.388633	36.646000
19.461585	1.389519	36.692000
19.486864	1.393983	36.739000
19.512223	1.391335	36.785000
19.536871	1.389569	36.831000
19.624267	1.386926	36.877000
19.649540	1.383388	37.038000
19.674524	1.378643	37.084000
19.700028	1.375185	37.130000
19.724346	1.374379	37.177000
19.748614	1.369835	37.223000
19.773954	1.369775	37.269000
19.798885	1.364316	37.315000
19.824246	1.365766	37.361000
19.848998	1.362738	37.407000
19.874369	1.359986	37.453000
19.899402	1.361863	37.499000
20.098922	1.361562	37.546000
20.124145	1.359896	37.914000
20.220363	1.359291	37.959000
20.244844	1.366387	38.138000
20.269353	1.371202	38.183000
20.293915	1.379365	38.230000
20.318932	1.381096	38.275000
20.344264	1.384229	38.322000
20.369422	1.388903	38.367000
20.394733	1.394344	38.414000
20.419149	1.400965	38.459000
20.444096	1.415524	38.506000
20.468602	1.416105	38.552000
20.492955	1.425989	38.598000
20.578416	1.447164	38.643000
20.603074	1.447064	38.800000
20.628727	1.447064	38.845000
20.653581	1.460021	38.892000
20.678101	1.474776	38.938000
20.702569	1.473819	38.984000
20.727081	1.480445	39.030000
20.931286	1.488073	39.076000
20.955796	1.521700	39.450000
20.980818	1.524473	39.497000
21.005428	1.537177	39.543000
21.030474	1.538028	39.589000
21.055389	1.542901	39.634000
21.080555	1.545638	39.680000
21.169708	1.564250	39.727000
21.194533	1.566128	39.893000
21.219923	1.558687	39.939000
21.245055	1.581735	39.984000
21.270615	1.580860	40.031000
21.295388	1.585757	40.077000
21.320038	1.593639	40.123000
21.410957	1.602934	40.169000
21.436228	1.615952	40.338000
21.461360	1.619465	40.384000
21.486429	1.623008	40.430000
21.511954	1.630004	40.476000
21.536752	1.631149	40.522000
21.561186	1.637614	40.569000
21.585713	1.639684	40.614000
21.610242	1.637366	40.660000
21.635632	1.643631	40.706000
21.660617	1.639993	40.752000
21.686230	1.641422	40.799000
21.770450	1.649633	40.845000
21.794814	1.650134	41.000000
21.819563	1.647715	41.047000
21.844452	1.647424	41.092000
21.869755	1.650284	41.138000
21.894336	1.653346	41.184000
21.919450	1.652032	41.229000
22.007283	1.652881	41.274000
22.032514	1.657250	41.438000
22.056995	1.666094	41.483000
22.082028	1.667979	41.530000
22.106717	1.676663	41.575000
22.131538	1.680956	41.622000
22.156970	1.684579	41.669000
22.181690	1.688102	41.714000
22.207057	1.692331	41.760000
22.232249	1.696143	41.807000
22.257483	1.698632	41.853000
22.282802	1.695403	41.899000
22.366079	1.717906	41.946000
22.390987	1.717421	42.102000
22.416003	1.721870	42.148000
22.441629	1.728947	42.193000
22.466569	1.734926	42.240000
22.492355	1.736346	42.286000
22.517847	1.743127	42.333000
22.603861	1.755348	42.379000
22.629028	1.767930	42.538000
22.653174	1.771158	42.584000
22.678231	1.773936	42.631000
22.703318	1.775733	42.677000
22.728577	1.778015	42.722000
22.753600	1.785241	42.769000
22.778548	1.788024	42.815000
22.804301	1.793234	42.861000
22.828641	1.799165	42.907000
22.853297	1.802673	42.953000
22.878399	1.802883	42.999000
23.076661	1.828417	43.045000
23.101834	1.824989	43.413000
23.198332	1.830424	43.458000
23.223603	1.834928	43.638000
23.248255	1.840689	43.683000
23.273976	1.844772	43.730000
