Sample	2mm tape 
date	07/01/2025
	
Temperature (K)	77.00
Angle (deg.)	0.000000
field / T	0.300000
	
		
Approx. trace time (s)	120.0	
		
Current / A	V1  -sample/ uV	time/s
-0.015681	0.881095	0.000000
-0.015644	0.878067	0.090000
-0.015754	0.871501	0.136000
-0.015601	0.870850	0.182000
-0.015607	0.865219	0.228000
-0.015724	0.863191	0.274000
-0.015637	0.857569	0.320000
-0.015594	0.856045	0.366000
-0.015607	0.852041	0.412000
-0.015644	0.853816	0.457000
-0.015613	0.852832	0.503000
-0.015594	0.849852	0.550000
-0.016392	0.852171	0.596000
-0.007893	0.850123	0.761000
0.020545	0.856285	0.808000
0.047143	0.853326	0.854000
0.070360	0.856643	0.901000
0.096047	0.855181	0.947000
0.120232	0.860136	0.993000
0.204046	0.866038	1.039000
0.229153	0.880686	1.194000
0.253951	0.880576	1.239000
0.279230	0.885483	1.286000
0.303870	0.889108	1.331000
0.328380	0.894568	1.377000
0.353281	0.894002	1.423000
0.379003	0.895129	1.470000
0.403694	0.896134	1.516000
0.429217	0.896889	1.562000
0.454224	0.903621	1.607000
0.479263	0.904867	1.654000
0.681585	0.921132	1.700000
0.706789	0.920281	2.075000
0.798637	0.919686	2.121000
0.822994	0.932172	2.291000
0.847847	0.935630	2.336000
0.872944	0.939199	2.383000
0.898024	0.940785	2.429000
0.923081	0.937468	2.475000
0.948272	0.939449	2.521000
0.973002	0.945620	2.566000
0.998206	0.941376	2.613000
1.021876	0.948958	2.658000
1.047366	0.947571	2.704000
1.072164	0.951760	2.751000
1.162602	0.959773	2.796000
1.186857	0.959382	2.962000
1.211509	0.962880	3.008000
1.236683	0.959502	3.055000
1.261591	0.970788	3.101000
1.287139	0.969757	3.147000
1.311937	0.976308	3.193000
1.510971	0.978340	3.239000
1.536297	0.999220	3.606000
1.561272	0.995131	3.653000
1.586096	0.995061	3.699000
1.610347	0.999120	3.745000
1.635457	0.998389	3.791000
1.660795	1.002913	3.837000
1.757300	1.013103	3.883000
1.782302	1.013698	4.062000
1.807845	1.015595	4.109000
1.833066	1.019024	4.154000
1.858311	1.021355	4.201000
1.883303	1.024013	4.247000
1.908450	1.026575	4.293000
1.991456	1.023908	4.339000
2.016040	1.032505	4.494000
2.041525	1.028512	4.540000
2.066445	1.032051	4.586000
2.091978	1.036154	4.632000
2.116641	1.038196	4.678000
2.141292	1.032556	4.724000
2.165760	1.033852	4.770000
2.190568	1.035994	4.816000
2.215981	1.037110	4.862000
2.240959	1.034728	4.908000
2.266132	1.040678	4.954000
2.353685	1.042164	5.001000
2.378586	1.039037	5.162000
2.403936	1.039612	5.208000
2.428861	1.038396	5.255000
2.453653	1.044517	5.299000
2.477678	1.044056	5.346000
2.502042	1.047019	5.391000
2.587157	1.042635	5.438000
2.612170	1.042224	5.592000
2.636936	1.038056	5.639000
2.661911	1.035773	5.684000
2.687022	1.035924	5.732000
2.711274	1.036879	5.777000
2.736638	1.030333	5.824000
2.761344	1.025809	5.869000
2.786867	1.024954	5.916000
2.811979	1.021940	5.962000
2.837325	1.023257	6.008000
2.862472	1.018963	6.055000
2.949480	1.008954	6.101000
2.974560	1.007608	6.261000
2.999230	1.000441	6.307000
3.023533	0.998249	6.354000
3.048337	0.994451	6.400000
3.073590	0.989235	6.446000
3.099030	0.982630	6.492000
3.182886	0.976309	6.538000
3.207813	0.969778	6.693000
3.232199	0.964698	6.739000
3.256631	0.964588	6.785000
3.282037	0.954569	6.831000
3.306842	0.955119	6.877000
3.332809	0.948133	6.924000
3.357552	0.949994	6.970000
3.382686	0.947732	7.016000
3.408072	0.941591	7.062000
3.432662	0.935196	7.108000
3.457156	0.933218	7.155000
3.660021	0.907515	7.201000
3.685193	0.897936	7.574000
3.776336	0.898647	7.620000
3.801786	0.885133	7.790000
3.826577	0.885133	7.836000
3.852234	0.877303	7.883000
3.877062	0.875758	7.929000
3.902571	0.872025	7.975000
3.927533	0.871021	8.022000
3.951700	0.868602	8.068000
3.976972	0.868387	8.114000
4.001757	0.860892	8.160000
4.026820	0.863754	8.206000
4.052276	0.863610	8.253000
4.140618	0.861516	8.299000
4.165746	0.874584	8.462000
4.190452	0.851037	8.508000
4.215868	0.852431	8.554000
4.240816	0.852321	8.600000
4.265841	0.850163	8.646000
4.290707	0.850553	8.692000
4.489294	0.847904	8.738000
4.514245	0.835406	9.106000
4.538897	0.836825	9.152000
4.564310	0.834786	9.199000
4.589415	0.833822	9.245000
4.614202	0.838059	9.290000
4.639355	0.830129	9.337000
4.736526	0.831644	9.383000
4.761441	0.830993	9.562000
4.786430	0.831474	9.608000
4.811425	0.833702	9.654000
4.836053	0.830239	9.700000
4.860836	0.839564	9.747000
4.885529	0.836600	9.792000
4.970229	0.842243	9.838000
4.995245	0.847964	9.994000
5.020566	0.846720	10.040000
5.045176	0.848155	10.086000
5.069630	0.850712	10.132000
5.093870	0.852211	10.177000
5.118768	0.852812	10.223000
5.143866	0.855359	10.269000
5.168670	0.855924	10.315000
5.193652	0.854930	10.360000
5.218565	0.860371	10.406000
5.242668	0.860892	10.452000
5.332390	0.873329	10.498000
5.356948	0.871760	10.661000
5.381533	0.874010	10.707000
5.406503	0.873960	10.754000
5.431479	0.876782	10.800000
5.456502	0.878951	10.846000
5.481331	0.880315	10.893000
5.565708	0.882754	10.938000
5.589629	0.887681	11.093000
5.614637	0.891490	11.138000
5.639295	0.891240	11.184000
5.664351	0.892106	11.231000
5.689608	0.894528	11.276000
5.714515	0.902135	11.323000
5.739839	0.904818	11.368000
5.765055	0.910538	11.415000
5.789768	0.913445	11.461000
5.814186	0.914451	11.507000
5.839107	0.912590	11.553000
5.927880	0.917909	11.599000
5.952715	0.913405	11.763000
5.977647	0.916047	11.808000
6.003309	0.920176	11.855000
6.028217	0.921113	11.902000
6.053519	0.922459	11.948000
6.079110	0.922529	11.994000
6.162413	0.925146	12.040000
6.187247	0.937973	12.195000
6.211769	0.934725	12.242000
6.236720	0.933719	12.288000
6.262422	0.938403	12.334000
6.287122	0.940415	12.379000
6.312767	0.940686	12.425000
6.337463	0.948083	12.472000
6.362298	0.942542	12.518000
6.387140	0.949108	12.564000
6.411540	0.946856	12.611000
6.436606	0.959128	12.656000
6.638747	0.990782	12.702000
6.663225	0.990902	13.075000
6.755423	0.995917	13.121000
6.780469	1.016561	13.291000
6.805809	1.015275	13.337000
6.831118	1.020300	13.383000
6.855719	1.020430	13.429000
6.880278	1.019809	13.475000
6.904868	1.025218	13.521000
6.929832	1.029863	13.567000
6.954948	1.033472	13.614000
6.980015	1.035793	13.660000
7.005559	1.033236	13.705000
7.030580	1.037981	13.751000
7.118687	1.050627	13.797000
7.144505	1.052619	13.963000
7.169710	1.056528	14.008000
7.195060	1.052579	14.055000
7.219172	1.061382	14.101000
7.244197	1.067103	14.148000
7.269519	1.069565	14.194000
7.468234	1.069524	14.240000
7.493993	1.101582	14.608000
7.519072	1.103969	14.653000
7.544336	1.111422	14.700000
7.569693	1.111532	14.747000
7.594787	1.114021	14.793000
7.619713	1.113650	14.839000
7.715846	1.128683	14.884000
7.740902	1.131567	15.062000
7.764947	1.135080	15.108000
7.789697	1.146763	15.155000
7.814888	1.143969	15.200000
7.840214	1.143270	15.246000
7.865443	1.151065	15.293000
7.949649	1.154783	15.339000
7.974613	1.172688	15.494000
7.998934	1.180614	15.540000
8.023725	1.184632	15.585000
8.048760	1.186087	15.632000
8.074161	1.187540	15.679000
8.099020	1.192742	15.724000
8.124231	1.198664	15.771000
8.149484	1.206025	15.817000
8.174370	1.210961	15.863000
8.199438	1.212176	15.908000
8.223671	1.216943	15.955000
8.311144	1.238141	16.000000
8.335808	1.240191	16.163000
8.360864	1.243183	16.208000
8.386546	1.245732	16.255000
8.410843	1.248271	16.301000
8.436383	1.252628	16.346000
8.461505	1.255851	16.393000
8.544674	1.260104	16.440000
8.569184	1.269973	16.593000
8.594626	1.272662	16.640000
8.619903	1.271647	16.687000
8.644482	1.274465	16.732000
8.670591	1.274465	16.779000
8.695303	1.276385	16.825000
8.720174	1.278503	16.871000
8.744806	1.282047	16.917000
8.769194	1.281112	16.963000
8.794515	1.287014	17.009000
8.819515	1.288239	17.056000
8.906459	1.302549	17.102000
8.931537	1.304619	17.262000
8.956708	1.307662	17.308000
8.981707	1.309575	17.354000
9.006689	1.313008	17.400000
9.031529	1.313118	17.445000
9.055897	1.312998	17.492000
9.139965	1.317360	17.538000
9.165058	1.331242	17.693000
9.189837	1.332133	17.739000
9.215200	1.338930	17.785000
9.240326	1.341012	17.831000
9.264707	1.340722	17.877000
9.288784	1.338529	17.923000
9.314346	1.343194	17.969000
9.338919	1.349345	18.014000
9.364251	1.356936	18.060000
9.389149	1.357537	18.105000
9.414249	1.369078	18.152000
9.617270	1.409845	18.198000
9.642246	1.408039	18.574000
9.735249	1.414150	18.621000
9.760021	1.424339	18.790000
9.784513	1.432006	18.836000
9.808728	1.431506	18.883000
9.833802	1.434279	18.928000
9.859047	1.441194	18.974000
9.884325	1.442886	19.021000
9.909326	1.443016	19.067000
9.934570	1.450323	19.112000
9.959859	1.452975	19.159000
9.984553	1.460383	19.206000
10.009283	1.460212	19.252000
10.098995	1.476377	19.298000
10.123467	1.473515	19.462000
10.147943	1.473945	19.508000
10.172557	1.480561	19.555000
10.197852	1.484951	19.601000
10.223353	1.484380	19.647000
10.248413	1.491106	19.693000
10.447380	1.496751	19.739000
10.472343	1.512476	20.107000
10.497459	1.510283	20.153000
10.522395	1.508172	20.199000
10.546979	1.515508	20.244000
10.571325	1.516745	20.291000
10.596172	1.514052	20.337000
10.693918	1.515913	20.383000
10.719010	1.517570	20.563000
10.744123	1.515048	20.609000
10.769265	1.511799	20.655000
10.794620	1.514302	20.702000
10.819497	1.512265	20.748000
10.844844	1.508796	20.793000
10.928141	1.506895	20.840000
10.953588	1.497967	20.995000
10.978105	1.496270	21.041000
11.003527	1.487492	21.088000
11.028055	1.487092	21.133000
11.053392	1.483999	21.179000
11.078791	1.486326	21.225000
11.104026	1.474295	21.271000
11.128468	1.471342	21.318000
11.152906	1.467654	21.364000
11.177392	1.471993	21.410000
11.202502	1.465341	21.456000
11.289295	1.463771	21.501000
11.314713	1.455688	21.663000
11.339546	1.448512	21.709000
11.365169	1.455238	21.755000
11.389967	1.453367	21.801000
11.415480	1.446985	21.846000
11.440106	1.443207	21.893000
11.523018	1.442691	21.940000
11.548330	1.428758	22.094000
11.573422	1.428794	22.140000
11.599040	1.425636	22.186000
11.623877	1.425221	22.232000
11.649105	1.418079	22.279000
11.672640	1.412343	22.324000
11.697777	1.409466	22.371000
11.722564	1.403995	22.416000
11.747502	1.400307	22.462000
11.772936	1.402499	22.507000
11.797924	1.391864	22.554000
11.885567	1.376064	22.599000
11.910729	1.369638	22.763000
11.935710	1.363207	22.808000
11.960668	1.358038	22.854000
11.985200	1.359239	22.901000
12.010187	1.347373	22.947000
12.035056	1.346973	22.993000
12.119403	1.341443	23.039000
12.144458	1.321513	23.194000
12.169331	1.315914	23.240000
12.193926	1.317640	23.286000
12.218101	1.311705	23.332000
12.243517	1.307751	23.378000
12.268273	1.301325	23.424000
12.294019	1.303214	23.470000
12.319460	1.301036	23.516000
12.344392	1.293930	23.563000
12.369795	1.290036	23.610000
12.394483	1.284555	23.655000
12.596018	1.253522	23.702000
12.621551	1.269339	24.075000
12.713117	1.261732	24.121000
12.737846	1.262483	24.291000
12.763076	1.262273	24.337000
12.787919	1.264021	24.383000
12.813347	1.266449	24.430000
12.838507	1.265776	24.476000
12.863743	1.265171	24.522000
12.889309	1.272902	24.569000
12.913793	1.277009	24.615000
12.938617	1.276475	24.661000
12.963570	1.280552	24.707000
12.988716	1.283521	24.754000
13.076100	1.303305	24.800000
13.100928	1.303888	24.962000
13.126133	1.311734	25.007000
13.150940	1.318406	25.054000
13.176517	1.322720	25.100000
13.201426	1.332449	25.146000
13.226312	1.339225	25.192000
13.425398	1.344410	25.238000
13.449742	1.390237	25.605000
13.474384	1.386224	25.651000
13.499540	1.396578	25.697000
13.524751	1.399746	25.743000
13.549681	1.408815	25.789000
13.574845	1.407959	25.835000
13.672341	1.431081	25.882000
13.696949	1.425965	26.062000
13.722135	1.428728	26.108000
13.747252	1.427857	26.153000
13.772632	1.429494	26.200000
13.797425	1.439508	26.246000
13.822495	1.442501	26.293000
13.905954	1.442181	26.339000
13.931410	1.451990	26.494000
13.956472	1.452170	26.540000
13.981234	1.452445	26.586000
14.006679	1.457090	26.632000
14.030753	1.463590	26.678000
14.055547	1.461158	26.724000
14.080118	1.461419	26.770000
14.105666	1.465382	26.817000
14.130871	1.464956	26.863000
14.156279	1.468134	26.909000
14.181324	1.470857	26.955000
14.268355	1.477242	27.001000
14.293438	1.473209	27.162000
14.318127	1.475281	27.208000
14.342741	1.477132	27.254000
14.367556	1.475682	27.300000
14.392475	1.480580	27.346000
14.417724	1.479455	27.393000
14.502198	1.474851	27.438000
14.527292	1.477953	27.594000
14.551734	1.479555	27.639000
14.576269	1.478349	27.686000
14.600778	1.477252	27.732000
14.626135	1.480135	27.778000
14.651143	1.483003	27.824000
14.676401	1.484820	27.870000
14.701478	1.483033	27.915000
14.726608	1.483273	27.962000
14.751566	1.489704	28.008000
14.776064	1.492702	28.054000
14.864622	1.496150	28.100000
14.889713	1.494008	28.262000
14.913662	1.503507	28.309000
14.938485	1.501466	28.354000
14.963445	1.507651	28.400000
14.988610	1.508292	28.446000
15.014301	1.505479	28.492000
15.098112	1.510484	28.538000
15.123295	1.519126	28.693000
15.147321	1.520543	28.739000
15.172436	1.512716	28.785000
15.197722	1.515208	28.830000
15.223156	1.528728	28.877000
15.248416	1.528188	28.924000
15.273150	1.528328	28.970000
15.298226	1.531600	29.016000
15.322403	1.526528	29.062000
15.347144	1.527023	29.107000
15.372312	1.526689	29.154000
15.575756	1.518041	29.200000
15.600656	1.511709	29.574000
15.692487	1.510914	29.621000
15.717279	1.504923	29.791000
15.742496	1.502812	29.837000
15.767938	1.497857	29.882000
15.792180	1.493072	29.928000
15.816872	1.493152	29.974000
15.841120	1.490310	30.021000
15.866261	1.488468	30.067000
15.891914	1.499548	30.113000
15.916730	1.486116	30.158000
15.942148	1.472428	30.205000
15.967149	1.471793	30.251000
16.055943	1.465502	30.298000
16.081187	1.457219	30.463000
16.106616	1.454031	30.509000
16.131454	1.453921	30.555000
16.156817	1.450603	30.601000
16.181610	1.444923	30.647000
16.206072	1.445228	30.694000
16.404828	1.437226	30.740000
16.429526	1.423363	31.107000
16.454880	1.412713	31.153000
16.479960	1.404711	31.199000
16.504893	1.410090	31.244000
16.530228	1.407283	31.291000
16.555193	1.406117	31.337000
16.651945	1.408519	31.382000
16.676941	1.403585	31.562000
16.702147	1.399786	31.608000
16.726173	1.400517	31.654000
16.751175	1.394386	31.700000
16.776505	1.400106	31.746000
16.801154	1.401032	31.793000
16.885697	1.398690	31.838000
16.911043	1.396128	31.993000
16.935595	1.396418	32.039000
16.959863	1.397173	32.085000
16.984950	1.401563	32.131000
17.010031	1.394416	32.178000
17.035100	1.393060	32.224000
17.060075	1.397013	32.270000
17.085309	1.396588	32.316000
17.110866	1.399030	32.362000
17.135352	1.402974	32.408000
17.160448	1.397614	32.454000
17.248175	1.404520	32.500000
17.272647	1.402619	32.663000
17.297365	1.405707	32.708000
17.322150	1.408118	32.755000
17.348007	1.401998	32.801000
17.372417	1.401748	32.847000
17.397744	1.405737	32.893000
17.481824	1.405071	32.938000
17.506226	1.404440	33.094000
17.530602	1.406532	33.140000
17.555932	1.402944	33.186000
17.581313	1.407103	33.232000
17.605927	1.403404	33.278000
17.631918	1.406147	33.324000
17.656705	1.402994	33.370000
17.681061	1.404670	33.416000
17.705616	1.404170	33.462000
17.730529	1.404630	33.508000
17.755526	1.402759	33.554000
17.842856	1.412402	33.599000
17.868503	1.413143	33.763000
17.893282	1.412923	33.809000
17.918123	1.410862	33.855000
17.943730	1.410851	33.901000
17.968336	1.412873	33.947000
17.993932	1.414935	33.992000
18.076669	1.417057	34.040000
18.101823	1.415901	34.194000
18.126700	1.421136	34.240000
18.151519	1.423413	34.285000
18.177115	1.426501	34.331000
18.201959	1.425946	34.378000
18.226883	1.426336	34.423000
18.250784	1.430039	34.469000
18.275782	1.424849	34.515000
18.300892	1.430059	34.561000
18.325945	1.430169	34.607000
18.350788	1.429914	34.653000
18.553733	1.463530	34.699000
18.578810	1.464146	35.074000
18.670936	1.468135	35.121000
18.696659	1.480571	35.291000
18.721872	1.483614	35.337000
18.747166	1.486421	35.384000
18.771188	1.492903	35.430000
18.795960	1.491867	35.476000
18.821355	1.493698	35.523000
18.846330	1.493303	35.569000
18.871784	1.500845	35.615000
18.896838	1.499749	35.660000
18.922020	1.502541	35.707000
18.946623	1.500514	35.753000
19.035069	1.515128	35.799000
19.060340	1.510564	35.962000
19.085418	1.510815	36.008000
19.110307	1.513391	36.055000
19.133941	1.515743	36.101000
19.159028	1.519732	36.146000
19.184268	1.521759	36.192000
19.382901	1.527928	36.238000
19.408588	1.535576	36.605000
19.433491	1.536879	36.651000
19.458516	1.537044	36.698000
19.482742	1.542302	36.743000
19.507271	1.540292	36.790000
19.532354	1.539148	36.835000
19.631372	1.546383	36.881000
19.655220	1.545765	37.062000
19.679732	1.545594	37.108000
19.704926	1.543326	37.154000
19.729621	1.544200	37.201000
19.755082	1.539513	37.246000
19.780268	1.542700	37.292000
19.863701	1.543116	37.338000
19.888270	1.538193	37.493000
19.913228	1.541418	37.539000
19.938597	1.539693	37.585000
19.963595	1.538528	37.631000
19.988693	1.536390	37.678000
20.013545	1.538989	37.723000
20.038985	1.536728	37.769000
20.064135	1.540421	37.816000
20.088192	1.535326	37.861000
20.112881	1.538689	37.908000
20.138261	1.544090	37.953000
20.226016	1.540637	38.000000
20.250799	1.541227	38.163000
20.276460	1.532906	38.209000
20.301126	1.538558	38.255000
20.326746	1.539933	38.301000
20.351460	1.537064	38.347000
20.376756	1.535526	38.392000
20.459437	1.538819	38.439000
20.484789	1.542691	38.594000
20.509776	1.544650	38.639000
20.534582	1.541247	38.686000
20.559870	1.547019	38.731000
20.585171	1.548673	38.778000
20.609847	1.548452	38.824000
20.634296	1.549338	38.870000
20.658812	1.549777	38.916000
20.684006	1.550751	38.962000
20.709265	1.556843	39.008000
20.734392	1.555618	39.054000
20.822045	1.561359	39.100000
20.847210	1.557498	39.263000
20.872786	1.563470	39.309000
20.897871	1.564594	39.356000
20.923353	1.562904	39.402000
20.947706	1.564069	39.448000
20.972423	1.568465	39.494000
21.056285	1.567213	39.540000
21.081525	1.572008	39.695000
21.106761	1.570215	39.742000
21.131965	1.575153	39.788000
21.157299	1.573929	39.834000
21.181894	1.577492	39.880000
21.206260	1.575822	39.926000
21.231156	1.578396	39.972000
21.256045	1.578140	40.018000
21.281106	1.582360	40.064000
21.306546	1.580509	40.110000
21.331717	1.581533	40.156000
21.532887	1.574992	40.203000
21.558103	1.570285	40.575000
21.649945	1.573698	40.621000
21.674447	1.570445	40.791000
21.699336	1.568625	40.837000
21.724036	1.569541	40.883000
21.749730	1.567301	40.928000
21.774471	1.562884	40.975000
21.799740	1.561509	41.021000
21.825139	1.562445	41.067000
21.850393	1.563249	41.114000
21.875235	1.563239	41.160000
21.899646	1.559091	41.207000
21.924742	1.557097	41.252000
22.013407	1.559696	41.299000
22.038514	1.560126	41.463000
22.062510	1.556642	41.509000
22.087735	1.557267	41.555000
22.113027	1.558431	41.601000
22.138567	1.559201	41.647000
22.163686	1.559976	41.693000
22.362359	1.558882	41.739000
22.387743	1.547517	42.106000
22.412695	1.545994	42.153000
22.436838	1.546728	42.199000
22.461512	1.543535	42.244000
22.486617	1.548816	42.291000
22.512394	1.533586	42.337000
22.609414	1.528398	42.382000
22.635066	1.523460	42.562000
22.659664	1.514272	42.609000
22.684520	1.521668	42.655000
22.710002	1.509597	42.701000
22.735619	1.510073	42.748000
22.760585	1.509707	42.794000
22.843531	1.505398	42.840000
22.868453	1.499113	42.994000
22.893804	1.494568	43.041000
22.918996	1.499648	43.087000
22.943848	1.488198	43.133000
22.969210	1.492046	43.179000
22.994258	1.487557	43.225000
23.018557	1.489774	43.271000
23.043459	1.481211	43.317000
23.067948	1.481401	43.364000
23.093732	1.476186	43.410000
23.118574	1.472317	43.456000
23.205580	1.465212	43.502000
23.231050	1.457169	43.662000
