Sample	2mm tape 
date	07/01/2025
	
Temperature (K)	77.00
Angle (deg.)	0.000000
field / T	0.000000
	
		
Approx. trace time (s)	120.0	
		
Current / A	V1  -sample/ uV	time/s
-0.016098	0.796076	0.000000
-0.016025	0.800874	0.352000
-0.015932	0.810319	0.398000
-0.015963	0.838493	0.576000
-0.016736	0.847679	0.622000
-0.015711	0.852970	0.668000
-0.016147	0.857607	0.714000
-0.000234	0.862485	0.760000
0.023733	0.868956	0.806000
0.048888	0.874098	0.851000
0.074520	0.879720	0.897000
0.099721	0.888060	0.943000
0.125260	0.894399	0.990000
0.148247	0.900250	1.035000
0.235423	0.913406	1.081000
0.259884	0.912816	1.240000
0.284428	0.914543	1.286000
0.310838	0.917440	1.333000
0.335690	0.919498	1.379000
0.360905	0.922766	1.425000
0.386096	0.925187	1.472000
0.586109	0.927049	1.518000
0.611542	0.932709	1.888000
0.636819	0.932729	1.934000
0.661414	0.933040	1.981000
0.686108	0.931884	2.027000
0.710882	0.931874	2.073000
0.735806	0.932474	2.119000
0.830279	0.930738	2.165000
0.855650	0.927300	2.340000
0.881222	0.923932	2.386000
0.905806	0.923391	2.432000
0.931173	0.922125	2.478000
0.955615	0.920969	2.524000
0.980422	0.918927	2.571000
1.066083	0.915238	2.617000
1.090741	0.909759	2.776000
1.116131	0.907306	2.821000
1.141113	0.904434	2.867000
1.166584	0.901486	2.913000
1.191327	0.897827	2.959000
1.215985	0.895565	3.004000
1.240258	0.893454	3.051000
1.265008	0.892743	3.097000
1.289855	0.891486	3.142000
1.314779	0.890126	3.189000
1.340539	0.888639	3.235000
1.426309	0.886292	3.282000
1.451930	0.884717	3.440000
1.476637	0.883843	3.486000
1.501438	0.885971	3.532000
1.525592	0.885047	3.578000
1.550374	0.884937	3.624000
1.575650	0.884577	3.670000
1.661981	0.885286	3.715000
1.687661	0.890430	3.876000
1.712447	0.893324	3.922000
1.737835	0.894974	3.969000
1.762956	0.896971	4.015000
1.787527	0.900139	4.061000
1.812575	0.901166	4.106000
1.836554	0.902331	4.153000
1.862213	0.903708	4.199000
1.887214	0.905880	4.246000
1.912742	0.907186	4.292000
1.937838	0.910059	4.339000
2.022993	0.917690	4.385000
2.047425	0.914823	4.541000
2.072081	0.917550	4.586000
2.096899	0.918131	4.633000
2.121940	0.919953	4.679000
2.147265	0.921819	4.725000
2.172530	0.923831	4.771000
2.258042	0.926233	4.818000
2.283718	0.933896	4.976000
2.308453	0.935372	5.022000
2.333853	0.936758	5.069000
2.357886	0.938274	5.114000
2.382714	0.939351	5.161000
2.407843	0.941012	5.207000
2.433211	0.942319	5.254000
2.458183	0.943795	5.300000
2.483295	0.944991	5.345000
2.508373	0.945707	5.391000
2.533386	0.947804	5.438000
2.732557	0.955016	5.484000
2.757598	0.949566	5.852000
2.853895	0.949756	5.899000
2.879194	0.947664	6.075000
2.903092	0.948139	6.122000
2.928092	0.948270	6.168000
2.952959	0.949155	6.213000
2.978297	0.950156	6.260000
3.003034	0.951113	6.306000
3.028658	0.952158	6.352000
3.053432	0.952098	6.398000
3.078302	0.952954	6.444000
3.102769	0.952914	6.490000
3.127837	0.956833	6.537000
3.213433	0.966777	6.583000
3.238108	0.967568	6.740000
3.263510	0.971791	6.786000
3.288267	0.974745	6.832000
3.313212	0.976906	6.878000
3.337967	0.980034	6.924000
3.362300	0.983603	6.970000
3.564996	0.984868	7.017000
3.589253	1.005378	7.388000
3.613751	1.009542	7.434000
3.638373	1.012545	7.480000
3.663842	1.015533	7.526000
3.688952	1.018951	7.572000
3.714128	1.021573	7.619000
3.809054	1.034099	7.665000
3.833826	1.033254	7.840000
3.859514	1.035937	7.886000
3.884141	1.037143	7.931000
3.908410	1.041787	7.979000
3.933265	1.043979	8.024000
3.958510	1.046997	8.070000
4.044675	1.050330	8.117000
4.069946	1.062295	8.276000
4.095281	1.065944	8.322000
4.119901	1.069903	8.368000
4.145436	1.073451	8.414000
4.169502	1.081944	8.460000
4.194215	1.081954	8.505000
4.219458	1.089726	8.552000
4.244472	1.097273	8.599000
4.269295	1.107644	8.644000
4.294875	1.114001	8.691000
4.319735	1.119029	8.736000
4.404743	1.135370	8.783000
4.429388	1.138488	8.939000
4.454236	1.144191	8.986000
4.478865	1.150987	9.032000
4.504338	1.157592	9.079000
4.529677	1.164789	9.124000
4.555331	1.173440	9.171000
4.640990	1.179965	9.217000
4.666148	1.203507	9.376000
4.691087	1.212378	9.422000
4.715409	1.219124	9.468000
4.739658	1.225655	9.514000
4.764849	1.232851	9.560000
4.790308	1.239508	9.606000
4.815369	1.247018	9.653000
4.840114	1.252675	9.699000
4.865647	1.259011	9.745000
4.890746	1.265612	9.791000
4.915702	1.273803	9.837000
4.999389	1.299953	9.883000
5.024857	1.302632	10.040000
5.049976	1.307809	10.086000
5.075003	1.312801	10.132000
5.100225	1.318261	10.178000
5.125337	1.322565	10.224000
5.150166	1.327630	10.270000
5.236604	1.332950	10.316000
5.261183	1.350371	10.476000
5.285565	1.352348	10.522000
5.310678	1.356176	10.568000
5.335876	1.358783	10.613000
5.361061	1.361116	10.660000
5.386429	1.363113	10.706000
5.411014	1.366501	10.752000
5.436410	1.367997	10.799000
5.461051	1.369349	10.845000
5.485549	1.372322	10.891000
5.510488	1.373307	10.937000
5.710064	1.398821	10.983000
5.735550	1.396264	11.352000
5.831362	1.398436	11.398000
5.857039	1.404246	11.576000
5.881776	1.404056	11.622000
5.907323	1.406298	11.668000
5.932112	1.409606	11.714000
5.957830	1.410672	11.761000
5.983155	1.413545	11.807000
6.008324	1.415656	11.854000
6.033215	1.418844	11.901000
6.057246	1.422293	11.947000
6.082318	1.425832	11.993000
6.107528	1.431422	12.039000
6.192176	1.446531	12.085000
6.217318	1.449184	12.241000
6.242556	1.453427	12.287000
6.266706	1.459148	12.333000
6.291223	1.464638	12.379000
6.316545	1.470759	12.425000
6.341674	1.475834	12.471000
6.542218	1.479242	12.517000
6.567122	1.522062	12.888000
6.592267	1.526213	12.934000
6.617825	1.532115	12.980000
6.642654	1.536942	13.026000
6.667825	1.541092	13.073000
6.692750	1.545396	13.119000
6.787478	1.564115	13.164000
6.812248	1.566263	13.340000
6.836514	1.574354	13.386000
6.861607	1.580245	13.432000
6.886448	1.585732	13.478000
6.911700	1.590550	13.522000
6.936823	1.597566	13.570000
7.023584	1.605147	13.615000
7.048610	1.626756	13.776000
7.074200	1.633061	13.822000
7.098775	1.640152	13.869000
7.123622	1.645169	13.915000
7.148399	1.649947	13.962000
7.173407	1.655558	14.008000
7.198615	1.659261	14.054000
7.223613	1.664923	14.100000
7.248927	1.669416	14.146000
7.273589	1.673834	14.191000
7.298591	1.678891	14.237000
7.382354	1.700775	14.284000
7.407208	1.701879	14.440000
7.432599	1.706785	14.486000
7.457403	1.713861	14.532000
7.483359	1.717504	14.578000
7.508408	1.722081	14.624000
7.533314	1.727384	14.669000
7.620023	1.732945	14.717000
7.644528	1.750176	14.876000
7.668821	1.754429	14.922000
7.694244	1.759254	14.968000
7.719137	1.764118	15.013000
7.744568	1.768763	15.060000
7.769628	1.772691	15.106000
7.795009	1.776766	15.152000
7.819134	1.779358	15.198000
7.843701	1.783357	15.244000
7.868722	1.783811	15.290000
7.893919	1.787620	15.337000
7.979151	1.800918	15.383000
8.004153	1.800257	15.540000
8.029264	1.803090	15.586000
8.054784	1.807083	15.632000
8.079773	1.810347	15.679000
8.103783	1.812589	15.724000
8.128085	1.814210	15.770000
8.214604	1.815957	15.816000
8.240122	1.820421	15.976000
8.265404	1.820551	16.022000
8.290533	1.823609	16.068000
8.315957	1.825606	16.115000
8.340891	1.828129	16.161000
8.366318	1.829274	16.207000
8.390632	1.830581	16.254000
8.415613	1.831035	16.300000
8.439988	1.833248	16.346000
8.465530	1.834193	16.391000
8.490809	1.832582	16.438000
8.689538	1.846235	16.484000
8.715131	1.843457	16.852000
8.810861	1.846084	16.898000
8.836286	1.851014	17.076000
8.861271	1.852661	17.122000
8.886124	1.852661	17.169000
8.911518	1.853427	17.215000
8.935654	1.854118	17.260000
8.960862	1.856019	17.307000
8.985433	1.855929	17.353000
9.010967	1.857085	17.399000
9.035942	1.859137	17.445000
9.060706	1.859017	17.491000
9.086026	1.858802	17.536000
9.170458	1.852782	17.583000
9.195545	1.848827	17.740000
9.220221	1.846555	17.787000
9.245699	1.846224	17.832000
9.270882	1.845499	17.879000
9.295533	1.843813	17.924000
9.320927	1.843196	17.971000
9.521566	1.842301	18.016000
9.547223	1.836936	18.388000
9.572084	1.834233	18.434000
9.597717	1.832102	18.481000
9.622021	1.831776	18.526000
9.646156	1.831696	18.572000
9.671140	1.829084	18.619000
9.765761	1.822318	18.665000
9.791159	1.815857	18.840000
9.816244	1.812369	18.886000
9.841677	1.809916	18.932000
9.866734	1.807663	18.979000
9.891804	1.805822	19.024000
9.916425	1.804597	19.071000
10.002299	1.801603	19.117000
10.027257	1.795452	19.276000
10.051865	1.791128	19.322000
10.076806	1.785789	19.368000
10.102095	1.782260	19.414000
10.127142	1.777446	19.460000
10.152070	1.773517	19.506000
10.176998	1.768713	19.551000
10.201505	1.762512	19.597000
10.225887	1.756346	19.644000
10.251295	1.750115	19.689000
10.276267	1.743360	19.736000
10.361624	1.722101	19.782000
10.387401	1.714205	19.940000
10.412635	1.707720	19.986000
10.437795	1.702197	20.033000
10.462701	1.695877	20.079000
10.487555	1.691099	20.125000
10.512039	1.686071	20.171000
10.597430	1.681554	20.217000
10.622890	1.673384	20.376000
10.647722	1.672490	20.422000
10.673166	1.670570	20.468000
10.697966	1.670610	20.514000
10.723341	1.671724	20.560000
10.748201	1.671445	20.606000
10.773549	1.671544	20.653000
10.797771	1.670111	20.699000
10.822504	1.670061	20.745000
10.847832	1.668346	20.791000
10.873263	1.666027	20.838000
10.958221	1.664707	20.884000
10.982829	1.660396	21.039000
11.007695	1.658347	21.086000
11.032460	1.656567	21.132000
11.057057	1.655213	21.179000
11.082234	1.652974	21.224000
11.106938	1.649917	21.270000
11.194069	1.647818	21.316000
11.219405	1.639698	21.476000
11.244723	1.638464	21.522000
11.269728	1.635965	21.568000
11.294527	1.631656	21.615000
11.318865	1.628123	21.660000
11.343804	1.621907	21.707000
11.368601	1.616970	21.753000
11.393603	1.614126	21.800000
11.418999	1.608254	21.846000
11.443707	1.603218	21.891000
11.469330	1.598030	21.938000
11.668666	1.560371	21.985000
11.694177	1.549592	22.353000
11.790070	1.544784	22.399000
11.815077	1.517297	22.576000
11.839772	1.512102	22.622000
11.864340	1.506361	22.668000
11.889397	1.502963	22.714000
11.914055	1.495316	22.761000
11.939314	1.489565	22.807000
11.964851	1.482769	22.853000
11.989813	1.476959	22.899000
12.015249	1.474066	22.945000
12.039802	1.467831	22.991000
12.063994	1.464343	23.038000
12.148742	1.447156	23.083000
12.173898	1.439154	23.240000
12.199069	1.433534	23.286000
12.224354	1.432077	23.333000
12.249901	1.427583	23.379000
12.274621	1.423354	23.425000
12.299663	1.417819	23.470000
12.500697	1.411423	23.517000
12.525630	1.365710	23.889000
12.550482	1.360390	23.935000
12.574862	1.355266	23.980000
12.599594	1.350661	24.027000
12.625049	1.347413	24.073000
12.650234	1.340882	24.119000
12.744364	1.325582	24.165000
12.770037	1.320393	24.340000
12.794772	1.318656	24.386000
12.820281	1.316163	24.433000
12.845160	1.312671	24.479000
12.869376	1.308574	24.524000
12.894322	1.306494	24.570000
12.980403	1.301378	24.617000
13.005700	1.289715	24.776000
13.030364	1.286442	24.822000
13.055921	1.284372	24.868000
13.081325	1.282618	24.914000
13.106100	1.281314	24.961000
13.130752	1.278111	25.006000
13.154981	1.274678	25.052000
13.179860	1.271504	25.098000
13.204788	1.267622	25.144000
13.230244	1.263849	25.190000
13.255702	1.259761	25.236000
13.340772	1.257192	25.282000
13.366176	1.252949	25.441000
13.390777	1.253250	25.487000
13.415656	1.254073	25.533000
13.440083	1.252969	25.579000
13.464961	1.254073	25.625000
13.490307	1.254754	25.670000
13.576415	1.254843	25.717000
13.602290	1.253460	25.876000
13.627265	1.253779	25.923000
13.652559	1.253769	25.969000
13.677431	1.256037	26.015000
13.701925	1.255248	26.061000
13.726245	1.255888	26.107000
13.751385	1.255158	26.153000
13.776464	1.252326	26.198000
13.801638	1.251875	26.244000
13.826538	1.249526	26.291000
13.851777	1.248117	26.337000
13.936924	1.243011	26.383000
13.961214	1.236779	26.540000
13.985449	1.234630	26.586000
14.010438	1.232721	26.632000
14.035800	1.231476	26.678000
14.060898	1.229128	26.724000
14.086058	1.227474	26.770000
14.172753	1.224081	26.816000
14.197872	1.224410	26.976000
14.222286	1.222757	27.022000
14.246470	1.223007	27.067000
14.271243	1.222406	27.114000
14.296661	1.224745	27.160000
14.321855	1.227014	27.205000
14.347027	1.231007	27.252000
14.372603	1.235815	27.299000
14.397098	1.241636	27.344000
14.422408	1.251560	27.391000
14.446450	1.259975	27.436000
14.646897	1.382856	27.483000
14.671431	1.398045	27.852000
14.767972	1.419615	27.898000
14.792343	1.493194	28.076000
14.817626	1.511426	28.122000
14.842840	1.531261	28.168000
14.868046	1.550816	28.215000
14.893189	1.566822	28.261000
14.918077	1.581740	28.307000
14.943625	1.593881	28.353000
14.968468	1.606631	28.399000
14.993739	1.619009	28.446000
15.018364	1.630123	28.491000
15.043689	1.638033	28.538000
15.128527	1.657512	28.584000
15.153680	1.659321	28.740000
15.179054	1.662139	28.787000
15.204116	1.665173	28.833000
15.229415	1.664748	28.880000
15.254280	1.663989	28.926000
15.278214	1.660175	28.972000
15.479648	1.659141	29.018000
15.503883	1.628003	29.388000
15.529282	1.622327	29.434000
15.554098	1.614661	29.480000
15.579517	1.610443	29.526000
15.604651	1.604262	29.573000
15.629710	1.596142	29.619000
15.724283	1.569505	29.665000
15.749560	1.561111	29.840000
15.774812	1.554640	29.887000
15.798815	1.549592	29.933000
15.824071	1.544664	29.979000
15.848992	1.539433	30.025000
15.874428	1.535185	30.071000
15.960034	1.533249	30.118000
15.985284	1.527568	30.276000
16.010555	1.524914	30.322000
16.035119	1.524103	30.368000
16.059452	1.521881	30.414000
16.084091	1.521320	30.459000
16.109531	1.522372	30.506000
16.134476	1.522667	30.553000
16.159764	1.523688	30.599000
16.185202	1.524473	30.645000
16.210056	1.526324	30.691000
16.235189	1.526584	30.736000
16.319620	1.538289	30.782000
16.344509	1.539033	30.940000
16.369367	1.542656	30.987000
16.394422	1.546697	31.032000
16.420137	1.552321	31.079000
16.444985	1.557029	31.125000
16.470070	1.562660	31.171000
16.556017	1.568136	31.217000
16.581369	1.585233	31.376000
16.605301	1.591195	31.422000
16.630166	1.595722	31.468000
16.655161	1.603366	31.514000
16.680476	1.606421	31.560000
16.705833	1.613718	31.607000
16.731110	1.616830	31.653000
16.756334	1.619069	31.698000
16.781361	1.621437	31.746000
16.806719	1.624167	31.792000
16.830970	1.627054	31.838000
16.915199	1.633315	31.884000
16.940345	1.631267	32.040000
16.965509	1.632291	32.087000
16.991431	1.634134	32.133000
17.016489	1.634510	32.179000
17.041748	1.636678	32.226000
17.066736	1.636293	32.272000
17.151283	1.638233	32.318000
17.176598	1.642580	32.476000
17.201754	1.643685	32.523000
17.226547	1.643499	32.569000
17.251370	1.642810	32.615000
17.277011	1.645943	32.661000
17.302179	1.646932	32.706000
17.327094	1.648902	32.753000
17.351410	1.649113	32.798000
17.376063	1.651041	32.845000
17.400356	1.652295	32.891000
17.425686	1.652356	32.937000
17.625789	1.648461	32.983000
17.651192	1.644344	33.352000
17.747083	1.644798	33.399000
17.772249	1.638721	33.576000
17.797554	1.635984	33.622000
17.822911	1.635030	33.668000
17.847754	1.632689	33.715000
17.873549	1.629752	33.761000
17.897948	1.628122	33.807000
17.922841	1.624565	33.854000
17.947481	1.621577	33.900000
17.972455	1.615605	33.946000
17.997485	1.611707	33.992000
18.023313	1.607454	34.039000
18.107781	1.597364	34.085000
18.132835	1.589790	34.240000
18.157205	1.585531	34.286000
18.181598	1.582248	34.332000
18.206533	1.577381	34.379000
18.231800	1.575468	34.424000
18.256714	1.569896	34.471000
18.457715	1.566093	34.517000
18.482742	1.537955	34.888000
18.507596	1.533559	34.934000
18.533218	1.527877	34.980000
18.557870	1.522151	35.025000
18.582715	1.518092	35.071000
18.606457	1.512767	35.117000
18.702293	1.501367	35.163000
18.726878	1.494380	35.340000
18.752842	1.490057	35.387000
18.778007	1.486849	35.433000
18.802892	1.484851	35.478000
18.828328	1.480377	35.525000
18.852967	1.477565	35.571000
18.939437	1.474998	35.616000
18.964133	1.468166	35.776000
18.988628	1.465398	35.822000
19.012904	1.465408	35.868000
19.038551	1.463297	35.914000
19.062917	1.462020	35.960000
19.088133	1.460283	36.006000
19.113801	1.459658	36.052000
19.138500	1.457600	36.098000
19.164061	1.454894	36.144000
19.188225	1.454303	36.190000
19.212791	1.452121	36.237000
19.298252	1.452662	36.283000
19.323262	1.446211	36.441000
19.348871	1.445345	36.486000
19.373729	1.443273	36.533000
19.398815	1.444339	36.579000
19.423360	1.443998	36.624000
19.447638	1.443778	36.670000
19.533948	1.444944	36.716000
19.558681	1.443263	36.876000
19.584490	1.443958	36.922000
19.609317	1.443518	36.969000
19.634645	1.444774	37.014000
19.660058	1.443798	37.061000
19.685427	1.446751	37.107000
19.710139	1.448192	37.153000
19.734233	1.449869	37.200000
19.758920	1.454173	37.245000
19.783581	1.454683	37.291000
19.808966	1.457932	37.337000
19.894319	1.466919	37.384000
19.919725	1.466564	37.540000
19.944915	1.467840	37.587000
19.969366	1.470507	37.633000
19.993799	1.471138	37.679000
20.018313	1.471684	37.724000
20.043309	1.472225	37.770000
20.129923	1.472185	37.816000
20.155292	1.475333	37.976000
20.180357	1.475182	38.022000
20.205805	1.476909	38.069000
20.230983	1.477259	38.115000
20.256054	1.477754	38.162000
20.280989	1.476959	38.208000
20.305912	1.476859	38.254000
20.330828	1.476223	38.301000
20.355386	1.475342	38.347000
20.380936	1.473661	38.393000
20.406124	1.473380	38.439000
20.604962	1.472930	38.484000
20.630623	1.467701	38.853000
20.725919	1.469107	38.898000
20.751161	1.470133	39.076000
20.776150	1.472435	39.122000
20.800906	1.471099	39.168000
20.825166	1.470918	39.214000
20.849855	1.468617	39.259000
20.875454	1.468997	39.306000
20.900418	1.468597	39.353000
20.926029	1.467500	39.399000
20.951294	1.466955	39.445000
20.976488	1.465288	39.491000
21.001238	1.466970	39.537000
21.085038	1.466989	39.584000
21.109967	1.464222	39.740000
21.134663	1.465048	39.786000
21.160420	1.468041	39.832000
21.185017	1.470568	39.878000
21.210495	1.474487	39.924000
21.235417	1.476979	39.970000
21.436846	1.480126	40.015000
21.462063	1.519934	40.388000
21.487284	1.523698	40.434000
21.511833	1.528217	40.480000
21.535905	1.530921	40.526000
21.560600	1.537715	40.572000
21.585413	1.541281	40.618000
21.681001	1.563010	40.664000
21.705834	1.562225	40.840000
21.730932	1.566283	40.886000
21.756639	1.571030	40.932000
21.781682	1.575607	40.979000
21.806393	1.581209	41.024000
21.830477	1.583084	41.071000
21.916749	1.587401	41.116000
21.941741	1.601158	41.275000
21.966570	1.604511	41.321000
21.991766	1.605346	41.367000
22.017005	1.609753	41.414000
22.042233	1.611168	41.460000
22.067466	1.614591	41.506000
22.091874	1.615331	41.552000
22.116429	1.616205	41.597000
22.140749	1.619757	41.644000
22.166133	1.619948	41.691000
22.191119	1.620423	41.736000
22.277053	1.623052	41.782000
22.301825	1.621247	41.940000
22.326957	1.620273	41.986000
22.351423	1.618844	42.031000
22.375649	1.616515	42.077000
22.400121	1.615345	42.123000
22.425313	1.615946	42.169000
22.513339	1.613507	42.215000
22.538373	1.612822	42.376000
22.563366	1.610054	42.422000
22.588466	1.611972	42.468000
22.613156	1.610748	42.513000
22.637985	1.610948	42.560000
22.662434	1.610064	42.606000
22.687647	1.608104	42.652000
22.712133	1.608449	42.698000
22.737592	1.608489	42.744000
22.762988	1.609543	42.790000
22.787475	1.604471	42.836000
22.873992	1.597615	42.882000
22.898328	1.592798	43.041000
22.923138	1.592068	43.087000
22.947817	1.589539	43.133000
22.973286	1.584962	43.179000
22.998103	1.581930	43.225000
23.023386	1.575748	43.271000
23.109417	1.573068	43.317000
23.134400	1.556487	43.476000
23.159504	1.550191	43.522000
23.184381	1.544784	43.568000
23.208728	1.541581	43.614000
23.233332	1.537585	43.660000
23.258561	1.531692	43.707000
