Sample	2mm tape 
date	08/01/2025
	
Temperature (K)	77.00
Angle (deg.)	0.000000
field / T	0.150000
	
		
Approx. trace time (s)	120.0	
		
Current / A	V1  -sample/ uV	time/s
-0.016086	1.794058	0.000000
-0.016056	1.790525	0.046000
-0.016160	1.790383	0.092000
-0.016056	1.786606	0.138000
-0.016184	1.781885	0.184000
-0.016111	1.781426	0.231000
-0.016068	1.782992	0.277000
-0.016141	1.784110	0.323000
-0.016056	1.780025	0.369000
-0.016166	1.784332	0.415000
-0.016044	1.783877	0.462000
-0.016007	1.787244	0.508000
-0.015971	1.787223	0.553000
-0.005154	1.790868	0.599000
-0.016695	1.800291	0.646000
-0.017297	1.803926	0.692000
0.044492	1.804759	0.738000
0.070640	1.830713	0.893000
0.268520	1.857853	0.939000
0.293045	1.855800	1.307000
0.318460	1.852317	1.354000
0.343435	1.852135	1.399000
0.369037	1.851801	1.446000
0.393941	1.851048	1.493000
0.419863	1.848682	1.539000
0.444398	1.847879	1.585000
0.470012	1.846196	1.632000
0.495259	1.845108	1.678000
0.519941	1.843198	1.725000
0.544336	1.844663	1.771000
0.637747	1.844001	1.817000
0.662998	1.840893	1.989000
0.747963	1.835989	2.035000
0.772670	1.834478	2.190000
0.797632	1.833351	2.237000
0.821979	1.832375	2.283000
0.846966	1.832101	2.329000
0.872009	1.828932	2.376000
0.897223	1.826415	2.422000
0.922644	1.827961	2.468000
0.948043	1.832010	2.515000
0.972682	1.834832	2.561000
0.997876	1.836610	2.606000
1.022107	1.841949	2.653000
1.047449	1.844082	2.698000
1.072334	1.846853	2.746000
1.097559	1.849982	2.792000
1.122574	1.854784	2.838000
1.148420	1.859020	2.884000
1.233880	1.863586	2.931000
1.259134	1.888488	3.089000
1.343370	1.922402	3.135000
1.368029	1.932381	3.291000
1.392904	1.940893	3.338000
1.418166	1.953684	3.384000
1.443620	1.964001	3.430000
1.468484	1.973889	3.477000
1.493873	1.983993	3.523000
1.518974	1.997282	3.569000
1.543917	2.006129	3.615000
1.568421	2.019279	3.661000
1.592772	2.032888	3.707000
1.617591	2.042711	3.753000
1.642732	2.054068	3.798000
1.667849	2.069362	3.845000
1.693118	2.082526	3.890000
1.718384	2.098880	3.937000
1.743961	2.106037	3.983000
1.829594	2.115083	4.030000
1.854359	2.144137	4.189000
1.938194	2.181329	4.235000
1.963642	2.186729	4.391000
1.988695	2.193504	4.437000
2.013858	2.199837	4.483000
2.039069	2.202751	4.529000
2.064059	2.204430	4.575000
2.089031	2.204332	4.621000
2.113455	2.206279	4.667000
2.138237	2.207294	4.714000
2.163366	2.206492	4.759000
2.188258	2.205407	4.806000
2.213566	2.204311	4.852000
2.239118	2.206421	4.898000
2.264408	2.198219	4.944000
2.289236	2.197885	4.991000
2.313882	2.192978	5.037000
2.338573	2.189440	5.083000
2.540922	2.184766	5.130000
2.565516	2.144142	5.500000
2.589972	2.137601	5.548000
2.614779	2.128748	5.593000
2.639433	2.121786	5.640000
2.664751	2.112711	5.686000
2.690200	2.105675	5.731000
2.715754	2.100097	5.779000
2.740995	2.095050	5.824000
2.765726	2.089386	5.871000
2.791143	2.082992	5.918000
2.815296	2.075510	5.963000
2.839831	2.076237	6.010000
2.865246	2.072881	6.056000
2.890239	2.068919	6.103000
2.915896	2.065582	6.148000
2.940758	2.064164	6.195000
3.024319	2.060181	6.241000
3.048848	2.050823	6.395000
3.248045	2.023691	6.441000
3.272874	2.022120	6.809000
3.298127	2.019309	6.855000
3.323351	2.022414	6.901000
3.348195	2.023114	6.947000
3.373275	2.027269	6.993000
3.398398	2.029934	7.039000
3.422918	2.029278	7.086000
3.447793	2.027521	7.131000
3.471930	2.032776	7.177000
3.497409	2.029652	7.223000
3.522220	2.038146	7.268000
3.616698	2.041281	7.314000
3.642292	2.056631	7.489000
3.725876	2.058438	7.535000
3.750533	2.060750	7.691000
3.775392	2.063314	7.736000
3.800548	2.063632	7.783000
3.825880	2.067897	7.829000
3.851290	2.068150	7.875000
3.875934	2.069522	7.921000
3.900854	2.066379	7.967000
3.925788	2.066711	8.013000
3.949830	2.066752	8.060000
3.975678	2.067767	8.106000
4.000749	2.066622	8.153000
4.025778	2.068029	8.198000
4.050380	2.067978	8.244000
4.075859	2.064158	8.290000
4.101075	2.058549	8.337000
4.126502	2.055541	8.382000
4.212435	2.251604	8.430000
4.237338	2.035749	8.588000
4.321263	2.023998	8.635000
4.345881	2.012758	8.791000
4.371017	2.006134	8.836000
4.396291	1.998013	8.882000
4.420945	1.993338	8.928000
4.445983	1.983478	8.973000
4.470419	1.979105	9.020000
4.495164	1.966058	9.066000
4.520581	1.956125	9.113000
4.545934	1.951393	9.159000
4.571004	1.942896	9.205000
4.595764	1.941030	9.251000
4.621568	1.931638	9.297000
4.646150	1.929333	9.343000
4.670871	1.921715	9.390000
4.696098	1.917827	9.436000
4.720558	1.913126	9.482000
4.807269	1.913045	9.528000
4.832056	1.899816	9.689000
4.917560	1.896181	9.735000
4.942798	1.896505	9.891000
4.968083	1.896687	9.937000
4.992700	1.904689	9.983000
5.017302	1.905462	10.029000
5.041844	1.911402	10.075000
5.066909	1.916852	10.122000
5.092631	1.921047	10.168000
5.117526	1.924061	10.215000
5.142692	1.928792	10.261000
5.167862	1.931729	10.307000
5.193118	1.935231	10.353000
5.217926	1.939241	10.399000
5.242210	1.941242	10.445000
5.266630	1.944483	10.491000
5.292024	1.943791	10.537000
5.317521	1.944887	10.583000
5.518101	1.946601	10.629000
5.543311	1.958940	11.001000
5.568950	1.956382	11.048000
5.593394	1.949528	11.094000
5.619256	1.944155	11.140000
5.644578	1.941121	11.186000
5.669380	1.934205	11.233000
5.694945	1.930622	11.279000
5.718726	1.921973	11.325000
5.743811	1.914915	11.371000
5.768840	1.903592	11.417000
5.793589	1.894548	11.464000
5.819000	1.886293	11.510000
5.844655	1.881424	11.556000
5.870036	1.881207	11.603000
5.894812	1.879979	11.648000
5.919699	1.880438	11.695000
6.002713	1.880216	11.741000
6.028028	1.878225	11.895000
6.226992	1.872527	11.942000
6.251840	1.868008	12.309000
6.277703	1.866253	12.355000
6.302566	1.864161	12.401000
6.327772	1.865207	12.448000
6.352355	1.866880	12.494000
6.377155	1.865753	12.540000
6.401623	1.862447	12.587000
6.426911	1.870894	12.632000
6.452364	1.873077	12.679000
6.477458	1.873209	12.725000
6.502878	1.881227	12.772000
6.595257	1.881727	12.817000
6.619842	1.897823	12.989000
6.703948	1.911806	13.035000
6.729830	1.919656	13.191000
6.754649	1.924176	13.237000
6.779507	1.928053	13.283000
6.804651	1.930874	13.329000
6.828658	1.935923	13.374000
6.853036	1.937334	13.420000
6.877388	1.939841	13.465000
6.902669	1.943405	13.511000
6.927355	1.947667	13.556000
6.952113	1.947343	13.602000
6.977369	1.951883	13.648000
7.002267	1.953242	13.694000
7.026554	1.951782	13.740000
7.051277	1.953060	13.785000
7.076209	1.956402	13.832000
7.101597	1.955740	13.878000
7.190174	1.956371	13.924000
7.215276	1.950887	14.089000
7.300393	1.946500	14.135000
7.326145	1.945913	14.291000
7.350865	1.942875	14.338000
7.376009	1.942915	14.384000
7.400225	1.938542	14.430000
7.424814	1.933689	14.476000
7.449967	1.932926	14.521000
7.474948	1.931788	14.567000
7.500576	1.932031	14.614000
7.525612	1.933168	14.660000
7.551234	1.933952	14.706000
7.575782	1.937476	14.751000
7.600922	1.936702	14.798000
7.625098	1.935211	14.844000
7.649986	1.934347	14.891000
7.675278	1.932203	14.937000
7.700657	1.927138	14.983000
7.822621	1.919352	15.029000
7.890364	1.892081	15.256000
7.915507	1.887172	15.379000
7.940593	1.885195	15.426000
7.965904	1.877748	15.472000
7.990577	1.869347	15.518000
8.015667	1.860526	15.565000
8.039815	1.854829	15.611000
8.065531	1.847999	15.657000
8.091113	1.838167	15.703000
8.116057	1.838076	15.750000
8.141421	1.827284	15.797000
8.166611	1.821303	15.843000
8.192212	1.813396	15.889000
8.217462	1.805718	15.935000
8.241989	1.798165	15.982000
8.266262	1.788884	16.028000
8.291498	1.780771	16.075000
8.497938	1.770261	16.120000
8.522878	1.675857	16.501000
8.548117	1.686573	16.547000
8.573122	1.690425	16.594000
8.598587	1.691713	16.639000
8.623130	1.691743	16.686000
8.647690	1.689960	16.732000
8.672391	1.692525	16.778000
8.698096	1.690071	16.825000
8.723310	1.687618	16.871000
8.748026	1.686371	16.917000
8.773695	1.689682	16.963000
8.798294	1.683721	17.009000
8.823255	1.685913	17.055000
8.847937	1.684737	17.101000
8.873003	1.685862	17.148000
8.897404	1.684907	17.193000
8.982239	1.680885	17.240000
9.007155	1.677488	17.396000
9.207055	1.646789	17.442000
9.232159	1.643230	17.810000
9.257043	1.637850	17.856000
9.282080	1.634089	17.903000
9.306654	1.630550	17.949000
9.331533	1.623808	17.995000
9.356664	1.619043	18.042000
9.382088	1.614571	18.088000
9.407316	1.608448	18.133000
9.432997	1.604829	18.181000
9.458223	1.597550	18.227000
9.483024	1.596070	18.274000
9.573747	1.591204	18.320000
9.599013	1.574951	18.489000
9.683740	1.565002	18.535000
9.709046	1.564212	18.691000
9.734405	1.564324	18.737000
9.758750	1.564324	18.783000
9.782992	1.563733	18.829000
9.807739	1.562305	18.875000
9.833226	1.564243	18.922000
9.858316	1.566016	18.968000
9.883552	1.564475	19.014000
9.908811	1.563289	19.060000
9.934156	1.563844	19.106000
9.959730	1.560387	19.153000
9.984421	1.559670	19.199000
10.009123	1.555116	19.246000
10.033410	1.554873	19.291000
10.058615	1.558818	19.338000
10.084153	1.560346	19.383000
10.169738	1.560034	19.431000
10.195535	1.561352	19.589000
10.280191	1.573795	19.635000
10.304852	1.576661	19.791000
10.329547	1.579240	19.838000
10.353815	1.582511	19.884000
10.379013	1.583985	19.930000
10.403903	1.588181	19.976000
10.429382	1.590452	20.022000
10.454086	1.590684	20.067000
10.479876	1.591071	20.113000
10.504659	1.589750	20.160000
10.529157	1.591930	20.206000
10.553834	1.592021	20.253000
10.579181	1.592865	20.299000
10.604522	1.592915	20.345000
10.629362	1.592480	20.391000
10.655189	1.592031	20.438000
10.680240	1.590705	20.484000
10.766008	1.594701	20.531000
10.790948	1.602984	20.689000
10.874272	1.605620	20.735000
10.899753	1.606887	20.891000
10.925397	1.609037	20.938000
10.950472	1.613414	20.984000
10.975544	1.616347	21.030000
11.000962	1.623878	21.077000
11.026260	1.627487	21.123000
11.051400	1.630925	21.169000
11.076334	1.635781	21.215000
11.100109	1.639359	21.261000
11.125710	1.640242	21.308000
11.150551	1.646477	21.353000
11.175828	1.653816	21.400000
11.201434	1.659992	21.447000
11.226347	1.669942	21.493000
11.251741	1.673976	21.540000
11.277381	1.679128	21.587000
11.476769	1.689416	21.632000
11.501598	1.738436	22.001000
11.526095	1.743131	22.046000
11.550392	1.745928	22.092000
11.575350	1.748543	22.138000
11.600823	1.748027	22.185000
11.625572	1.746750	22.231000
11.650849	1.745594	22.277000
11.676541	1.745297	22.323000
11.701478	1.742086	22.370000
11.726292	1.743950	22.416000
11.750600	1.739104	22.462000
11.775371	1.733945	22.508000
11.800656	1.729523	22.554000
11.826044	1.726909	22.600000
11.851092	1.722538	22.646000
11.876394	1.720397	22.693000
11.960435	1.717854	22.739000
11.984669	1.716192	22.894000
12.184665	1.692490	22.940000
12.209104	1.689487	23.308000
12.233986	1.689566	23.355000
12.259234	1.683853	23.401000
12.284418	1.682929	23.447000
12.309758	1.678103	23.494000
12.334662	1.673602	23.540000
12.360195	1.670185	23.586000
12.384961	1.665066	23.632000
12.409365	1.659292	23.678000
12.434003	1.651892	23.724000
12.459474	1.644784	23.771000
12.552786	1.636013	23.817000
12.578034	1.614338	23.989000
12.662687	1.591011	24.034000
12.687514	1.586120	24.191000
12.712215	1.579007	24.237000
12.736807	1.573026	24.283000
12.762282	1.569528	24.329000
12.787375	1.567507	24.375000
12.812928	1.565208	24.423000
12.837636	1.565238	24.468000
12.862359	1.561210	24.515000
12.887842	1.565410	24.560000
12.912596	1.567193	24.607000
12.936853	1.570094	24.653000
12.961887	1.570947	24.698000
12.987223	1.569892	24.744000
13.012955	1.570498	24.792000
13.037508	1.573107	24.838000
13.063199	1.574869	24.883000
13.148508	1.572497	24.929000
13.174262	1.581224	25.089000
13.257771	1.595590	25.135000
13.282640	1.598044	25.291000
13.307516	1.602203	25.337000
13.332841	1.607911	25.383000
13.358406	1.610486	25.430000
13.383623	1.614257	25.476000
13.408555	1.617290	25.522000
13.433637	1.618891	25.568000
13.458599	1.626331	25.615000
13.483425	1.631409	25.662000
13.508053	1.636299	25.707000
13.533909	1.642024	25.754000
13.558904	1.648647	25.801000
13.584306	1.653037	25.846000
13.609550	1.659504	25.893000
13.634750	1.662936	25.940000
13.659905	1.665258	25.985000
13.744086	1.668265	26.032000
13.768866	1.682788	26.189000
13.853396	1.690308	26.235000
13.879174	1.694699	26.391000
13.904345	1.696849	26.438000
13.929497	1.699575	26.484000
13.954697	1.698652	26.530000
13.979555	1.700488	26.577000
14.004670	1.700964	26.622000
14.029315	1.702160	26.670000
14.054320	1.705547	26.716000
14.078950	1.704027	26.762000
14.104328	1.702760	26.808000
14.129681	1.700519	26.854000
14.154719	1.699717	26.899000
14.179753	1.703144	26.946000
14.204533	1.698237	26.992000
14.228941	1.697132	27.038000
14.253658	1.696371	27.084000
14.454724	1.700751	27.131000
14.479358	1.712361	27.501000
14.504624	1.710312	27.548000
14.530178	1.708701	27.594000
14.555052	1.710221	27.640000
14.580773	1.710494	27.687000
14.605894	1.712259	27.733000
14.631109	1.710433	27.779000
14.656190	1.710079	27.825000
14.680427	1.704128	27.872000
14.705469	1.701065	27.918000
14.729942	1.699211	27.964000
14.755330	1.698399	28.011000
14.780842	1.698066	28.057000
14.805758	1.696057	28.103000
14.831026	1.694497	28.149000
14.856027	1.692802	28.196000
14.939716	1.693175	28.242000
14.964377	1.686092	28.397000
15.164397	1.650317	28.443000
15.189200	1.642928	28.810000
15.214577	1.637880	28.856000
15.239690	1.628773	28.902000
15.263891	1.625085	28.947000
15.289556	1.620460	28.993000
15.313499	1.616690	29.039000
15.338463	1.610729	29.086000
15.363671	1.604272	29.132000
15.388375	1.600436	29.178000
15.413969	1.593454	29.224000
15.439056	1.590038	29.271000
15.532824	1.585586	29.317000
15.557576	1.570856	29.488000
15.640984	1.562175	29.534000
15.666117	1.554610	29.691000
15.691555	1.551931	29.737000
15.716404	1.550020	29.782000
15.741593	1.548580	29.829000
15.767380	1.544571	29.875000
15.791731	1.541280	29.921000
15.816791	1.538641	29.967000
15.841009	1.532903	30.013000
15.866148	1.529552	30.060000
15.891587	1.530184	30.107000
15.916557	1.523066	30.152000
15.942328	1.520771	30.199000
15.967044	1.517308	30.246000
15.992518	1.518982	30.292000
16.017782	1.515898	30.338000
16.042302	1.516292	30.384000
16.127532	1.514271	30.431000
16.152430	1.506870	30.589000
16.237693	1.503235	30.635000
16.262284	1.499995	30.792000
16.288130	1.497669	30.837000
16.313007	1.496026	30.883000
16.338545	1.491770	30.930000
16.363053	1.490461	30.976000
16.387817	1.488777	31.023000
16.412306	1.488898	31.069000
16.437642	1.484743	31.115000
16.462940	1.488726	31.162000
16.488182	1.489131	31.208000
16.513101	1.485001	31.254000
16.538712	1.484693	31.300000
16.562896	1.481149	31.346000
16.587830	1.477848	31.392000
16.612688	1.475301	31.437000
16.637429	1.470165	31.484000
16.723063	1.467606	31.531000
16.748294	1.457880	31.688000
16.833223	1.451915	31.734000
16.858088	1.449312	31.890000
16.882939	1.446885	31.936000
16.906826	1.447385	31.982000
16.932247	1.447334	32.029000
16.957337	1.448189	32.074000
16.982762	1.446960	32.122000
17.008156	1.446086	32.168000
17.033475	1.446481	32.213000
17.058569	1.446066	32.261000
17.083753	1.450095	32.307000
17.109068	1.451703	32.353000
17.133085	1.451222	32.399000
17.158481	1.452593	32.446000
17.183277	1.454883	32.492000
17.208878	1.456794	32.538000
17.233798	1.457401	32.584000
17.433762	1.461157	32.631000
17.459259	1.482807	33.001000
17.484676	1.485345	33.047000
17.509772	1.488247	33.094000
17.534770	1.490471	33.139000
17.559398	1.495577	33.185000
17.584582	1.498968	33.232000
17.608998	1.504939	33.278000
17.633906	1.510210	33.325000
17.658989	1.514932	33.370000
17.684217	1.523905	33.416000
17.709340	1.525502	33.463000
17.734484	1.531745	33.509000
17.760180	1.538418	33.555000
17.784796	1.544601	33.601000
17.809940	1.552062	33.648000
17.833588	1.559083	33.693000
17.917620	1.562692	33.740000
17.943313	1.584782	33.895000
18.142487	1.616528	33.940000
18.167883	1.620878	34.309000
18.193048	1.625754	34.355000
18.217954	1.627224	34.401000
18.242351	1.632882	34.447000
18.266662	1.634392	34.492000
18.291789	1.634331	34.539000
18.316762	1.637197	34.584000
18.342332	1.641185	34.631000
18.367557	1.642796	34.677000
18.392880	1.647883	34.724000
18.417843	1.649863	34.770000
18.510775	1.650215	34.815000
18.535725	1.659119	34.989000
18.620383	1.663676	35.035000
18.645525	1.672943	35.191000
18.670652	1.673570	35.237000
18.695927	1.675326	35.284000
18.721079	1.674241	35.330000
18.745983	1.681419	35.376000
18.770328	1.678163	35.423000
18.795132	1.680283	35.469000
18.820672	1.681348	35.515000
18.845883	1.679792	35.561000
18.871227	1.678487	35.607000
18.896388	1.676684	35.653000
18.921772	1.677129	35.699000
18.946185	1.675872	35.745000
18.970224	1.674726	35.791000
18.994681	1.673065	35.837000
19.019944	1.676370	35.882000
19.106390	1.673267	35.929000
19.131440	1.671289	36.089000
19.216567	1.670955	36.134000
19.241900	1.669446	36.291000
19.266519	1.670063	36.338000
19.290753	1.670854	36.383000
19.315338	1.674716	36.429000
19.340774	1.676765	36.476000
19.366172	1.679228	36.521000
19.391524	1.678884	36.568000
19.416938	1.680899	36.615000
19.441727	1.681823	36.662000
19.467469	1.683609	36.708000
19.492188	1.685099	36.753000
19.517117	1.687127	36.800000
19.541034	1.685230	36.847000
19.566547	1.687572	36.893000
19.591461	1.689631	36.939000
19.616995	1.687299	36.985000
19.702373	1.687360	37.031000
19.727513	1.687683	37.189000
19.811891	1.691644	37.235000
19.836140	1.694173	37.391000
19.861294	1.695521	37.436000
19.886277	1.699535	37.483000
19.911678	1.705152	37.529000
19.936811	1.708220	37.575000
19.961644	1.714450	37.621000
19.987105	1.719559	37.667000
20.011826	1.724172	37.714000
20.036855	1.729749	37.760000
20.062007	1.739815	37.807000
20.086529	1.744732	37.853000
20.111590	1.755114	37.898000
20.136511	1.766905	37.945000
20.162272	1.775654	37.991000
20.187070	1.786272	38.037000
20.212595	1.796195	38.083000
20.413177	1.809839	38.130000
20.438358	1.888077	38.501000
20.463763	1.897935	38.548000
20.488831	1.905755	38.594000
20.513379	1.914687	38.640000
20.537753	1.927032	38.686000
20.563108	1.934190	38.732000
20.588045	1.946378	38.779000
20.612765	1.954386	38.824000
20.638769	1.960906	38.871000
20.663539	1.971921	38.917000
20.689171	1.980490	38.963000
20.713668	1.986571	39.009000
20.738080	1.996816	39.056000
20.762924	2.002463	39.101000
20.787717	2.009186	39.148000
20.813030	2.018807	39.194000
20.897352	2.025153	39.240000
20.922846	2.057716	39.395000
21.122147	2.121754	39.442000
21.147235	2.126648	39.810000
21.171957	2.136079	39.856000
21.196527	2.142190	39.903000
21.221838	2.149727	39.948000
21.246773	2.158333	39.995000
21.271928	2.173339	40.042000
21.296998	2.183152	40.087000
21.322391	2.191658	40.133000
21.347303	2.203135	40.180000
21.372345	2.207769	40.225000
21.397428	2.216560	40.272000
21.489451	2.225830	40.318000
21.514808	2.250757	40.488000
21.599082	2.268597	40.535000
21.624173	2.273997	40.690000
21.648589	2.277226	40.737000
21.673153	2.281145	40.783000
21.697891	2.284840	40.829000
21.723295	2.286436	40.875000
21.749000	2.288434	40.922000
21.773848	2.290845	40.967000
21.799396	2.289450	41.014000
21.824647	2.289970	41.061000
21.850068	2.288610	41.107000
21.874939	2.290456	41.153000
21.899534	2.284769	41.200000
21.924636	2.285846	41.246000
21.949423	2.278869	41.293000
21.974894	2.274527	41.339000
21.999671	2.268992	41.385000
22.085251	2.263012	41.431000
22.110412	2.244980	41.589000
22.194685	2.222439	41.634000
22.219656	2.215716	41.791000
22.244675	2.208876	41.838000
22.270259	2.200935	41.884000
22.295822	2.191557	41.931000
22.320442	2.190421	41.978000
22.345793	2.186377	42.024000
22.371300	2.177983	42.070000
22.396704	2.173926	42.117000
