Sample	2mm tape 
date	07/01/2025
	
Temperature (K)	77.00
Angle (deg.)	150.000000
field / T	0.000000
	
		
Approx. trace time (s)	120.0	
		
Current / A	V1  -sample/ uV	time/s
-0.018849	-0.553453	0.000000
-0.018781	-0.551725	0.045000
-0.018375	-0.547962	0.096000
-0.018719	-0.545035	0.142000
-0.018830	-0.541880	0.188000
-0.018455	-0.538568	0.233000
-0.019345	-0.534624	0.279000
-0.018276	-0.529947	0.325000
-0.018399	-0.527360	0.370000
-0.008084	-0.499551	0.757000
0.020346	-0.492951	0.803000
0.046816	-0.487004	0.849000
0.070982	-0.482831	0.895000
0.097356	-0.477119	0.941000
0.120107	-0.472893	0.987000
0.145505	-0.466390	1.032000
0.169138	-0.459645	1.078000
0.195408	-0.453704	1.123000
0.219396	-0.447294	1.170000
0.245428	-0.441422	1.216000
0.270891	-0.434584	1.262000
0.294260	-0.428545	1.308000
0.319267	-0.422068	1.354000
0.344157	-0.417460	1.400000
0.368361	-0.412903	1.445000
0.453019	-0.410124	1.491000
0.547505	-0.375780	1.646000
0.572247	-0.368824	1.820000
0.596433	-0.361948	1.866000
0.621156	-0.355162	1.912000
0.645678	-0.349342	1.958000
0.659182	-0.337926	2.004000
0.696463	-0.335534	2.050000
0.721592	-0.330710	2.096000
0.746925	-0.325581	2.142000
0.771728	-0.319109	2.188000
0.796015	-0.315381	2.234000
0.820580	-0.309942	2.280000
0.845128	-0.304542	2.326000
0.870524	-0.300753	2.371000
0.895274	-0.296634	2.417000
0.920396	-0.292341	2.463000
0.945575	-0.287791	2.509000
0.970036	-0.283913	2.555000
1.053393	-0.278999	2.601000
1.142877	-0.254027	2.756000
1.167385	-0.248391	2.920000
1.191877	-0.241436	2.966000
1.217105	-0.235345	3.012000
1.242160	-0.229465	3.058000
1.266971	-0.223260	3.103000
1.292091	-0.216013	3.150000
1.317025	-0.209337	3.195000
1.341241	-0.203277	3.241000
1.365727	-0.198162	3.287000
1.390953	-0.189309	3.333000
1.415890	-0.182560	3.379000
1.440880	-0.175099	3.425000
1.466096	-0.167412	3.471000
1.490488	-0.160487	3.516000
1.515538	-0.152862	3.562000
1.539826	-0.146906	3.608000
1.564716	-0.141260	3.654000
1.649108	-0.135666	3.700000
1.737810	-0.097480	3.855000
1.763201	-0.093502	4.020000
1.788540	-0.089541	4.066000
1.813371	-0.085452	4.112000
1.838562	-0.082668	4.158000
1.863930	-0.077317	4.205000
1.888427	-0.072530	4.251000
1.912790	-0.067204	4.297000
1.937845	-0.063879	4.343000
1.962578	-0.060186	4.389000
1.987824	-0.055251	4.435000
2.012430	-0.053201	4.481000
2.038271	-0.049224	4.526000
2.062776	-0.045681	4.572000
2.086844	-0.043588	4.618000
2.111728	-0.039560	4.664000
2.136203	-0.036941	4.710000
2.161622	-0.033959	4.755000
2.245283	-0.031520	4.801000
2.448718	-0.020931	4.956000
2.473739	-0.021306	5.333000
2.498648	-0.020380	5.378000
2.524152	-0.021186	5.424000
2.548851	-0.021101	5.470000
2.573731	-0.021246	5.516000
2.597914	-0.021715	5.561000
2.622467	-0.022581	5.607000
2.647694	-0.023765	5.653000
2.673074	-0.023545	5.700000
2.697984	-0.023944	5.746000
2.722987	-0.024174	5.792000
2.748122	-0.023484	5.837000
2.949847	-0.023290	5.883000
2.975198	-0.011206	6.256000
2.999915	-0.008299	6.303000
3.025328	-0.006920	6.349000
3.049788	-0.003890	6.395000
3.073744	-0.002283	6.441000
3.098954	0.001086	6.486000
3.123782	0.004773	6.532000
3.149057	0.007793	6.578000
3.173917	0.010555	6.624000
3.198798	0.010655	6.670000
3.223965	0.012470	6.716000
3.247631	0.014188	6.762000
3.272691	0.016332	6.808000
3.297294	0.017257	6.854000
3.322981	0.019835	6.899000
3.347952	0.023963	6.946000
3.431838	0.027556	6.992000
3.526044	0.054971	7.145000
3.550327	0.061427	7.320000
3.575469	0.063363	7.367000
3.600414	0.068128	7.413000
3.625983	0.073768	7.459000
3.650311	0.078022	7.505000
3.675978	0.085579	7.551000
3.700669	0.091279	7.597000
3.725259	0.096699	7.642000
3.749347	0.100828	7.688000
3.774321	0.105031	7.734000
3.799041	0.108510	7.780000
3.823986	0.112879	7.826000
3.849494	0.117553	7.872000
3.874640	0.123474	7.918000
3.899114	0.128318	7.964000
3.923556	0.133022	8.009000
3.948047	0.139132	8.055000
4.032149	0.144008	8.101000
4.121043	0.180636	8.256000
4.146195	0.189159	8.420000
4.171308	0.221234	8.466000
4.196117	0.202266	8.512000
4.221318	0.212411	8.557000
4.245663	0.219837	8.603000
4.269867	0.228220	8.649000
4.294675	0.236693	8.695000
4.319868	0.244228	8.741000
4.344664	0.251125	8.787000
4.369941	0.258951	8.833000
4.395125	0.266341	8.879000
4.419818	0.273718	8.925000
4.444479	0.281568	8.970000
4.468611	0.286696	9.016000
4.493511	0.292717	9.062000
4.518569	0.300212	9.108000
4.543837	0.308372	9.154000
4.627791	0.314649	9.200000
4.717047	0.351408	9.355000
4.742533	0.355051	9.520000
4.767154	0.359869	9.566000
4.792307	0.363731	9.612000
4.816158	0.367859	9.658000
4.841167	0.371242	9.703000
4.865834	0.373991	9.750000
4.890943	0.378738	9.795000
4.916300	0.382460	9.841000
4.941287	0.386618	9.887000
4.966531	0.390895	9.933000
4.991043	0.395933	9.979000
5.015196	0.401090	10.025000
5.040045	0.403428	10.071000
5.065174	0.406117	10.117000
5.090021	0.409489	10.163000
5.115403	0.411678	10.209000
5.140178	0.415916	10.255000
5.223038	0.420068	10.301000
5.427939	0.444904	10.455000
5.453042	0.444390	10.833000
5.477956	0.447048	10.878000
5.502843	0.449148	10.924000
5.526838	0.451456	10.969000
5.551664	0.453024	11.016000
5.576249	0.454639	11.061000
5.601373	0.456172	11.107000
5.626262	0.458582	11.153000
5.650850	0.461730	11.198000
5.675832	0.463117	11.244000
5.700494	0.465944	11.290000
5.725155	0.468446	11.336000
5.928975	0.470043	11.382000
5.953952	0.492980	11.757000
5.978485	0.498369	11.803000
6.002747	0.503594	11.848000
6.027631	0.508734	11.895000
6.052596	0.514423	11.940000
6.078062	0.519298	11.986000
6.102917	0.523126	12.033000
6.128037	0.528132	12.079000
6.153029	0.534648	12.124000
6.177332	0.538375	12.170000
6.201824	0.542690	12.216000
6.226639	0.547875	12.262000
6.252148	0.553474	12.309000
6.277069	0.557959	12.355000
6.302186	0.563604	12.401000
6.327506	0.568759	12.446000
6.410194	0.574264	12.492000
6.503946	0.612394	12.647000
6.529182	0.619380	12.821000
6.554774	0.626767	12.867000
6.579190	0.632948	12.912000
6.604506	0.638838	12.957000
6.629297	0.646169	13.004000
6.653664	0.652320	13.050000
6.678296	0.657114	13.096000
6.702830	0.660462	13.142000
6.728475	0.661464	13.188000
6.753289	0.665917	13.234000
6.778260	0.669413	13.280000
6.803812	0.673930	13.326000
6.828488	0.675845	13.372000
6.852536	0.679019	13.418000
6.876827	0.681851	13.463000
6.902555	0.685154	13.509000
6.927137	0.686288	13.556000
7.011741	0.685554	13.601000
7.099999	0.697558	13.756000
7.125569	0.700741	13.921000
7.150106	0.705848	13.966000
7.175079	0.707897	14.012000
7.199381	0.711540	14.058000
7.223846	0.711839	14.104000
7.249062	0.714177	14.150000
7.274181	0.713918	14.196000
7.299098	0.716447	14.242000
7.323976	0.718255	14.287000
7.349209	0.719710	14.332000
7.373892	0.721175	14.379000
7.397887	0.721888	14.425000
7.422910	0.723353	14.471000
7.447773	0.723423	14.517000
7.472867	0.724618	14.562000
7.498704	0.724037	14.608000
7.523423	0.723662	14.655000
7.606189	0.722738	14.701000
7.697014	0.711779	14.854000
7.721793	0.708436	15.021000
7.745995	0.705438	15.067000
7.770163	0.701835	15.111000
7.795667	0.698342	15.157000
7.820740	0.695893	15.204000
7.845808	0.696823	15.250000
7.871699	0.696937	15.295000
7.896509	0.697757	15.343000
7.921393	0.698692	15.389000
7.946050	0.699456	15.435000
7.970401	0.701835	15.481000
7.995016	0.701845	15.526000
8.020051	0.702789	15.572000
8.045139	0.700721	15.618000
8.070484	0.698841	15.664000
8.095478	0.696572	15.710000
8.119952	0.696063	15.756000
8.203488	0.694045	15.802000
8.407524	0.667583	15.957000
8.432219	0.662630	16.333000
8.456250	0.659116	16.378000
8.481000	0.654532	16.424000
8.505986	0.648167	16.470000
8.531113	0.643202	16.516000
8.556528	0.638538	16.562000
8.581429	0.635995	16.608000
8.606547	0.631031	16.654000
8.631156	0.630115	16.700000
8.655101	0.626927	16.746000
8.679791	0.628424	16.792000
8.704918	0.627352	16.837000
8.907667	0.628434	16.883000
8.932363	0.632727	17.257000
8.957312	0.633913	17.302000
8.981970	0.633963	17.348000
9.007085	0.634799	17.394000
9.032458	0.636626	17.440000
9.057157	0.638958	17.486000
9.081575	0.643552	17.532000
9.106129	0.646240	17.578000
9.131026	0.650884	17.624000
9.155756	0.653867	17.670000
9.180915	0.659427	17.715000
9.205921	0.663395	17.761000
9.231061	0.670052	17.807000
9.256141	0.673709	17.853000
9.280161	0.679743	17.899000
9.305131	0.684600	17.945000
9.389288	0.689861	17.991000
9.484163	0.733127	18.146000
9.509171	0.740103	18.321000
9.534591	0.745110	18.367000
9.558979	0.751387	18.413000
9.583232	0.756575	18.459000
9.608251	0.760531	18.505000
9.633111	0.764964	18.551000
9.658319	0.769585	18.597000
9.683533	0.773694	18.642000
9.708323	0.776363	18.688000
9.733294	0.780951	18.734000
9.757767	0.783908	18.780000
9.782299	0.786136	18.826000
9.806499	0.788615	18.872000
9.832375	0.791419	18.918000
9.856860	0.794892	18.964000
9.882310	0.796715	19.009000
9.907057	0.800050	19.055000
9.989642	0.803243	19.102000
10.080130	0.825885	19.255000
10.104874	0.827844	19.421000
10.128923	0.830172	19.466000
10.154017	0.830533	19.513000
10.178834	0.830861	19.558000
10.203680	0.830711	19.604000
10.229014	0.833725	19.650000
10.254387	0.833865	19.696000
10.279038	0.835398	19.742000
10.304141	0.835678	19.789000
10.328231	0.835914	19.835000
10.352691	0.835340	19.881000
10.378298	0.834066	19.926000
10.403368	0.832711	19.972000
10.428413	0.830412	20.018000
10.453388	0.828918	20.064000
10.478265	0.825164	20.110000
10.502542	0.823980	20.155000
10.586200	0.821932	20.201000
10.674937	0.807025	20.357000
10.699553	0.802567	20.520000
10.724871	0.801432	20.566000
10.749511	0.799268	20.612000
10.774633	0.798755	20.658000
10.799883	0.795212	20.704000
10.824888	0.792198	20.750000
10.849052	0.789549	20.796000
10.873278	0.785637	20.841000
10.898329	0.784262	20.887000
10.923386	0.781299	20.933000
10.948560	0.778711	20.979000
10.973523	0.773339	21.025000
10.998731	0.771094	21.071000
11.023266	0.768346	21.117000
11.047404	0.765409	21.163000
11.072163	0.763170	21.208000
11.097330	0.759797	21.254000
11.181684	0.758453	21.300000
11.385452	0.751167	21.454000
11.410202	0.751828	21.833000
11.435264	0.756495	21.879000
11.459992	0.758048	21.925000
11.485709	0.759082	21.971000
11.510407	0.762157	22.016000
11.535365	0.762625	22.061000
11.559733	0.764706	22.108000
11.584626	0.764626	22.154000
11.609133	0.767928	22.200000
11.634148	0.768427	22.246000
11.659498	0.770487	22.292000
11.684810	0.771836	22.337000
11.886407	0.774434	22.384000
11.911401	0.784393	22.757000
11.936966	0.785828	22.804000
11.961673	0.785457	22.849000
11.986328	0.785928	22.895000
12.011375	0.787032	22.941000
12.035503	0.788495	22.987000
12.060370	0.789609	23.033000
12.085394	0.791289	23.079000
12.110489	0.793938	23.125000
12.135355	0.796277	23.170000
12.160060	0.799730	23.216000
12.185375	0.801094	23.262000
12.209639	0.803721	23.308000
12.233934	0.805541	23.354000
12.259200	0.808030	23.400000
12.283951	0.809663	23.446000
12.368836	0.811893	23.492000
12.462855	0.820426	23.647000
12.487586	0.823895	23.821000
12.511599	0.823979	23.866000
12.536877	0.827823	23.913000
12.561597	0.832550	23.959000
12.586439	0.835488	24.004000
12.611878	0.841350	24.050000
12.636578	0.843818	24.096000
12.661385	0.848077	24.142000
12.685373	0.850405	24.188000
12.710071	0.854802	24.234000
12.735527	0.856437	24.280000
12.760611	0.862329	24.325000
12.785550	0.866265	24.371000
12.810972	0.872798	24.418000
12.836185	0.877225	24.464000
12.861004	0.883685	24.511000
12.886275	0.888572	24.556000
12.969303	0.894473	24.603000
13.057897	0.939855	24.757000
13.082370	0.949704	24.921000
13.107670	0.959428	24.967000
13.132939	0.968001	25.013000
13.157609	0.977549	25.058000
13.182866	0.986062	25.104000
13.207383	0.997538	25.150000
13.232016	1.004905	25.196000
13.256375	1.015650	25.241000
13.281328	1.024758	25.287000
13.306421	1.035213	25.333000
13.331119	1.045327	25.379000
13.356456	1.053590	25.425000
13.381664	1.063358	25.471000
13.406555	1.070265	25.518000
13.430720	1.079713	25.563000
13.455298	1.085213	25.609000
13.480403	1.093966	25.655000
13.564809	1.100038	25.701000
13.653796	1.140671	25.856000
13.678839	1.146128	26.021000
13.703912	1.154933	26.067000
13.728930	1.161624	26.112000
13.753834	1.170760	26.158000
13.778646	1.175507	26.204000
13.803159	1.180708	26.251000
13.827969	1.184611	26.296000
13.853022	1.190213	26.343000
13.878409	1.195321	26.388000
13.903454	1.201308	26.434000
13.928063	1.207408	26.480000
13.952989	1.214534	26.526000
13.977021	1.222005	26.572000
14.001920	1.227452	26.618000
14.026566	1.233598	26.664000
14.051741	1.238616	26.710000
14.076991	1.245127	26.755000
14.160292	1.250279	26.801000
14.364510	1.304198	26.956000
14.389759	1.308580	27.333000
14.414745	1.312488	27.379000
14.439721	1.313584	27.425000
14.464692	1.316337	27.471000
14.489274	1.318219	27.516000
14.513369	1.320851	27.563000
14.538088	1.322598	27.608000
14.562928	1.325635	27.654000
14.588198	1.330039	27.700000
14.613443	1.333022	27.746000
14.637946	1.336300	27.791000
14.662595	1.336120	27.837000
14.865160	1.338622	27.882000
14.890822	1.351839	28.257000
14.915262	1.353401	28.303000
14.940179	1.354482	28.349000
14.964713	1.357299	28.395000
14.990000	1.356604	28.441000
15.015430	1.359392	28.487000
15.040140	1.360092	28.533000
15.065738	1.361893	28.580000
15.090520	1.362554	28.625000
15.116132	1.363339	28.671000
15.139972	1.364626	28.717000
15.164958	1.364907	28.763000
15.189314	1.365007	28.809000
15.214580	1.365312	28.855000
15.239728	1.367449	28.901000
15.264568	1.366658	28.947000
15.349208	1.368990	28.993000
15.441695	1.357069	29.148000
15.466439	1.357660	29.320000
15.491358	1.356959	29.366000
15.516729	1.358515	29.412000
15.541275	1.357730	29.458000
15.566562	1.359992	29.504000
15.591378	1.361288	29.550000
15.616024	1.363701	29.596000
15.640580	1.363801	29.643000
15.665577	1.366658	29.688000
15.691207	1.367904	29.735000
15.716062	1.365772	29.781000
15.741092	1.365282	29.827000
15.766583	1.364186	29.873000
15.790981	1.367534	29.918000
15.815483	1.367299	29.965000
15.839686	1.366488	30.010000
15.864753	1.365622	30.056000
15.949054	1.365782	30.102000
16.037718	1.370056	30.257000
16.062902	1.371602	30.420000
16.087756	1.371622	30.467000
16.113527	1.375351	30.513000
16.137724	1.375521	30.559000
16.162484	1.376728	30.605000
16.186706	1.377062	30.651000
16.211426	1.378869	30.697000
16.236912	1.381602	30.742000
16.261637	1.382237	30.789000
16.287382	1.383383	30.834000
16.312215	1.384780	30.881000
16.337304	1.386156	30.927000
16.361265	1.385495	30.973000
16.385548	1.387472	31.018000
16.410297	1.387908	31.063000
16.435385	1.387382	31.109000
16.460525	1.387908	31.155000
16.544705	1.386701	31.201000
16.633791	1.379455	31.355000
16.659073	1.377804	31.521000
16.684029	1.375352	31.567000
16.708107	1.373664	31.613000
16.732721	1.372348	31.659000
16.757756	1.368770	31.705000
16.783207	1.366012	31.751000
16.808059	1.362970	31.797000
16.833219	1.363110	31.843000
16.858117	1.360143	31.889000
16.883146	1.359146	31.935000
16.907894	1.356034	31.981000
16.932631	1.354627	32.027000
16.957216	1.350574	32.074000
16.982172	1.345719	32.119000
17.007259	1.340354	32.165000
17.032505	1.335720	32.211000
17.058219	1.332482	32.257000
17.140926	1.323353	32.304000
17.344630	1.266639	32.458000
17.369847	1.259339	32.833000
17.394417	1.253088	32.880000
17.419207	1.244507	32.925000
17.443222	1.238536	32.971000
17.468696	1.232079	33.017000
17.493464	1.227492	33.063000
17.518679	1.221510	33.109000
17.543491	1.215530	33.154000
17.569398	1.208692	33.201000
17.594108	1.202941	33.247000
17.618109	1.196979	33.293000
17.642394	1.191287	33.339000
17.845247	1.185230	33.385000
17.869496	1.154398	33.757000
17.893580	1.152815	33.802000
17.918910	1.148962	33.849000
17.943816	1.148098	33.895000
17.968926	1.146653	33.940000
17.993991	1.148636	33.986000
18.018511	1.146603	34.032000
18.043788	1.146713	34.078000
18.067645	1.145329	34.124000
18.092412	1.145769	34.170000
18.117983	1.145298	34.216000
18.142701	1.144565	34.262000
18.167916	1.143070	34.308000
18.192889	1.141162	34.353000
18.217901	1.140446	34.399000
18.242194	1.138147	34.445000
18.325932	1.137589	34.491000
18.420394	1.127119	34.646000
18.445692	1.125245	34.821000
18.470919	1.122642	34.866000
18.495999	1.122441	34.912000
18.520717	1.121277	34.958000
18.545233	1.121208	35.005000
18.569955	1.119964	35.051000
18.594801	1.121078	35.097000
18.620097	1.120848	35.143000
18.645416	1.119824	35.188000
18.670573	1.118399	35.235000
18.695458	1.118024	35.281000
18.707481	1.117365	35.326000
18.744724	1.118084	35.372000
18.769094	1.118720	35.419000
18.794016	1.119914	35.465000
18.819010	1.123567	35.511000
18.843904	1.123636	35.557000
18.928036	1.125130	35.602000
19.016711	1.120114	35.757000
19.042237	1.120797	35.921000
19.067205	1.118469	35.968000
19.091118	1.119773	36.013000
19.116035	1.118929	36.059000
19.140870	1.118529	36.105000
19.165755	1.118124	36.151000
19.191256	1.118629	36.197000
19.216506	1.119653	36.244000
19.241493	1.121466	36.289000
19.266485	1.125274	36.335000
19.290697	1.126409	36.381000
19.314773	1.129148	36.427000
19.340521	1.129408	36.473000
19.365190	1.133835	36.519000
19.390171	1.137118	36.565000
19.415477	1.141905	36.611000
19.440838	1.147312	36.657000
19.523495	1.153638	36.703000
19.613130	1.193847	36.858000
19.637288	1.200123	37.021000
19.661641	1.207588	37.067000
19.687045	1.214714	37.113000
19.711591	1.222465	37.159000
19.736820	1.229601	37.205000
19.761874	1.239490	37.251000
19.786770	1.245982	37.297000
19.812152	1.255940	37.343000
19.835864	1.264351	37.389000
19.860604	1.271807	37.434000
19.885583	1.279937	37.480000
19.910591	1.287777	37.526000
19.935645	1.295897	37.572000
19.960393	1.304538	37.618000
19.986229	1.316146	37.664000
20.009869	1.322913	37.710000
20.034583	1.331696	37.756000
20.118801	1.339123	37.801000
20.323289	1.421012	37.955000
20.347718	1.427033	38.334000
20.372188	1.437002	38.379000
20.397394	1.445275	38.425000
20.422242	1.454968	38.471000
20.447839	1.463591	38.517000
20.472419	1.473866	38.563000
20.497271	1.484251	38.609000
20.522131	1.494600	38.655000
20.546211	1.503338	38.701000
20.571241	1.513247	38.746000
20.596230	1.525203	38.792000
20.621084	1.535681	38.838000
20.822901	1.549125	38.884000
20.847780	1.636751	39.257000
20.872717	1.644981	39.303000
20.897604	1.652257	39.349000
20.922952	1.661431	39.395000
20.948267	1.670205	39.440000
20.972664	1.680995	39.486000
20.997546	1.688621	39.532000
21.022481	1.697796	39.579000
21.047581	1.705555	39.625000
21.072414	1.713032	39.671000
21.097673	1.721212	39.717000
21.122598	1.727354	39.764000
21.148207	1.734130	39.809000
21.172635	1.739226	39.855000
21.196571	1.746657	39.901000
21.221331	1.751562	39.947000
21.305132	1.758318	39.993000
21.317712	1.798199	40.147000
21.411475	1.801708	40.298000
21.436212	1.807508	40.344000
21.461831	1.813834	40.390000
21.486685	1.818013	40.435000
21.512115	1.821301	40.482000
21.536819	1.826086	40.528000
21.561339	1.828607	40.574000
21.585711	1.831645	40.620000
21.610623	1.831325	40.666000
21.636093	1.832681	40.712000
21.660853	1.832671	40.757000
21.685537	1.834198	40.803000
21.710867	1.834668	40.849000
21.735068	1.836620	40.894000
21.759179	1.837766	40.940000
21.783810	1.836690	40.986000
21.809094	1.839667	41.032000
21.899874	1.837726	41.076000
21.995541	1.834178	41.244000
22.019602	1.834458	41.421000
22.044406	1.832216	41.466000
22.069077	1.831785	41.512000
22.094156	1.829804	41.557000
22.119083	1.828628	41.603000
22.144162	1.829394	41.648000
22.168747	1.829303	41.694000
22.192451	1.830980	41.740000
22.217668	1.829373	41.786000
22.242370	1.830279	41.832000
