Sample	2mm tape 
date	07/01/2025
	
Temperature (K)	77.00
Angle (deg.)	60.000000
field / T	0.000000
	
		
Approx. trace time (s)	120.0	
		
Current / A	V1  -sample/ uV	time/s
-0.018535	-0.302054	0.000000
-0.017885	-0.296896	0.046000
-0.018062	-0.291841	0.093000
-0.017848	-0.285800	0.138000
-0.018013	-0.280910	0.184000
-0.018259	-0.272483	0.231000
-0.017780	-0.235224	0.597000
-0.018265	-0.231452	0.644000
-0.017595	-0.226922	0.690000
-0.018296	-0.223119	0.736000
0.007246	-0.218164	0.782000
0.032907	-0.210092	0.829000
0.057284	-0.203371	0.875000
0.082742	-0.196404	0.921000
0.107296	-0.188853	0.967000
0.133741	-0.181299	1.013000
0.157778	-0.172887	1.059000
0.183602	-0.167386	1.106000
0.209475	-0.159576	1.152000
0.233000	-0.152795	1.199000
0.257798	-0.144953	1.244000
0.283093	-0.136843	1.291000
0.367937	-0.130353	1.337000
0.448773	-0.098975	1.492000
0.473733	-0.092554	1.643000
0.498777	-0.085243	1.689000
0.523981	-0.075403	1.735000
0.549234	-0.066209	1.781000
0.574689	-0.058119	1.828000
0.600153	-0.048534	1.875000
0.625080	-0.037835	1.921000
0.649952	-0.029906	1.968000
0.673838	-0.022251	2.013000
0.699067	-0.013745	2.060000
0.724236	-0.005641	2.105000
0.749526	0.002965	2.152000
0.774571	0.011346	2.198000
0.799714	0.020811	2.244000
0.824905	0.028145	2.290000
0.849868	0.034452	2.337000
0.874237	0.040743	2.382000
0.958604	0.045248	2.428000
1.044351	0.070056	2.584000
1.069370	0.073684	2.743000
1.094818	0.076277	2.789000
1.120179	0.079945	2.835000
1.145358	0.083183	2.882000
1.170126	0.087142	2.928000
1.194508	0.089334	2.974000
1.219227	0.090150	3.020000
1.244372	0.090020	3.066000
1.269514	0.088583	3.113000
1.294819	0.088863	3.159000
1.319593	0.088188	3.205000
1.345066	0.088813	3.251000
1.370512	0.091256	3.297000
1.395372	0.091035	3.344000
1.419521	0.091456	3.389000
1.444280	0.092632	3.436000
1.469318	0.092007	3.482000
1.554315	0.092462	3.529000
1.640726	0.101085	3.685000
1.665617	0.101055	3.843000
1.690630	0.101811	3.889000
1.715373	0.101791	3.936000
1.740255	0.101275	3.982000
1.764825	0.102747	4.028000
1.790072	0.101861	4.074000
1.815538	0.102392	4.121000
1.840827	0.102472	4.167000
1.866108	0.100059	4.213000
1.891506	0.099408	4.260000
1.916366	0.100434	4.306000
1.941249	0.098593	4.352000
1.965778	0.097948	4.398000
1.990639	0.092191	4.444000
2.015857	0.088783	4.491000
2.040969	0.084580	4.537000
2.066060	0.080400	4.583000
2.150940	0.075181	4.628000
2.351469	-0.004031	4.784000
2.376223	-0.013105	5.156000
2.401610	-0.022349	5.202000
2.426324	-0.031070	5.248000
2.451633	-0.041288	5.295000
2.475984	-0.050204	5.340000
2.501343	-0.060763	5.387000
2.525964	-0.070896	5.433000
2.551512	-0.082066	5.479000
2.576735	-0.094277	5.525000
2.601606	-0.104776	5.571000
2.627181	-0.117050	5.618000
2.651459	-0.130443	5.664000
2.861328	-0.143065	5.710000
2.886474	-0.239163	6.097000
2.911432	-0.248371	6.142000
2.935943	-0.257639	6.189000
2.960795	-0.267398	6.236000
2.986030	-0.276657	6.282000
3.011082	-0.285770	6.328000
3.036863	-0.294833	6.375000
3.062115	-0.302435	6.421000
3.087462	-0.312635	6.467000
3.112101	-0.323009	6.513000
3.137524	-0.334670	6.560000
3.161723	-0.346821	6.607000
3.186447	-0.356774	6.653000
3.211955	-0.367429	6.699000
3.236925	-0.376888	6.745000
3.262234	-0.388718	6.792000
3.346106	-0.401421	6.837000
3.427594	-0.472121	6.993000
3.453053	-0.482790	7.143000
3.477886	-0.494543	7.190000
3.503679	-0.503567	7.236000
3.528449	-0.515036	7.282000
3.553782	-0.523875	7.329000
3.578156	-0.530612	7.375000
3.602712	-0.536542	7.421000
3.628226	-0.540596	7.468000
3.653281	-0.544269	7.514000
3.678563	-0.548706	7.561000
3.703466	-0.551840	7.607000
3.728972	-0.552784	7.653000
3.753654	-0.553494	7.699000
3.778511	-0.552209	7.744000
3.803475	-0.551055	7.791000
3.828422	-0.548067	7.837000
3.853498	-0.547292	7.884000
3.937837	-0.545708	7.931000
4.023574	-0.538863	8.086000
4.048805	-0.538217	8.243000
4.074076	-0.536079	8.290000
4.098966	-0.534514	8.335000
4.123288	-0.532586	8.382000
4.148275	-0.530911	8.428000
4.173024	-0.522991	8.475000
4.198638	-0.527799	8.521000
4.223626	-0.524126	8.567000
4.249021	-0.520292	8.614000
4.274464	-0.515306	8.660000
4.299063	-0.510728	8.706000
4.323235	-0.506516	8.751000
4.347746	-0.501769	8.797000
4.372286	-0.497527	8.843000
4.397563	-0.493709	8.887000
4.422481	-0.487607	8.934000
4.447813	-0.480431	8.979000
4.533670	-0.470628	9.026000
4.619703	-0.425378	9.185000
4.644411	-0.417389	9.344000
4.668963	-0.409433	9.390000
4.694184	-0.405920	9.436000
4.719239	-0.403551	9.483000
4.744535	-0.401213	9.529000
4.769813	-0.400139	9.576000
4.795105	-0.398760	9.622000
4.820143	-0.396595	9.668000
4.845340	-0.392918	9.714000
4.870355	-0.389150	9.761000
4.894732	-0.385772	9.807000
4.919847	-0.382658	9.853000
4.944597	-0.380407	9.899000
4.969848	-0.377079	9.945000
4.994928	-0.372585	9.991000
5.020414	-0.369127	10.037000
5.045357	-0.364262	10.083000
5.128509	-0.357681	10.130000
5.330454	-0.266462	10.285000
5.354878	-0.257850	10.656000
5.380111	-0.251628	10.703000
5.404641	-0.244883	10.749000
5.430153	-0.237361	10.795000
5.455460	-0.229994	10.840000
5.480363	-0.222878	10.887000
5.505287	-0.215841	10.933000
5.530879	-0.210122	10.979000
5.555753	-0.204271	11.026000
5.579956	-0.196289	11.072000
5.605012	-0.190248	11.118000
5.630047	-0.183787	11.165000
5.839406	-0.177455	11.211000
5.864346	-0.151195	11.597000
5.889704	-0.148586	11.643000
5.914859	-0.145324	11.690000
5.940146	-0.142001	11.736000
5.965875	-0.137827	11.783000
5.990736	-0.133741	11.829000
6.016350	-0.129637	11.875000
6.041272	-0.124391	11.922000
6.065601	-0.120553	11.967000
6.090535	-0.113882	12.015000
6.115008	-0.109503	12.061000
6.140632	-0.103502	12.107000
6.165454	-0.099445	12.153000
6.190914	-0.094913	12.199000
6.216006	-0.088866	12.246000
6.241526	-0.082404	12.292000
6.324199	-0.076768	12.338000
6.406510	-0.043867	12.492000
6.432558	-0.037052	12.644000
6.457226	-0.031466	12.691000
6.481308	-0.024738	12.735000
6.506043	-0.020161	12.781000
6.530718	-0.016179	12.827000
6.556235	-0.010133	12.874000
6.581342	-0.007373	12.921000
6.606736	-0.003252	12.967000
6.631694	-0.001862	13.014000
6.657081	0.000526	13.059000
6.682161	0.003035	13.105000
6.706518	0.004918	13.152000
6.731241	0.006649	13.198000
6.756256	0.009227	13.244000
6.781264	0.008441	13.290000
6.806541	0.008123	13.336000
6.831821	0.006819	13.382000
6.916540	0.005735	13.429000
7.002129	0.002735	13.584000
7.027336	0.002360	13.743000
7.051859	0.003695	13.789000
7.077041	0.004590	13.836000
7.101637	0.005244	13.882000
7.126694	0.007322	13.928000
7.152041	0.009751	13.974000
7.177248	0.011326	14.020000
7.202254	0.014074	14.066000
7.226861	0.018062	14.112000
7.251202	0.022384	14.158000
7.276588	0.027997	14.204000
7.301749	0.033767	14.251000
7.326867	0.038812	14.297000
7.351840	0.043356	14.343000
7.377589	0.047084	14.390000
7.402809	0.052194	14.436000
7.427826	0.056668	14.482000
7.512080	0.063150	14.529000
7.597610	0.092752	14.685000
7.623048	0.095940	14.844000
7.648190	0.099187	14.890000
7.673505	0.098272	14.936000
7.698340	0.097606	14.982000
7.724239	0.098812	15.029000
7.749393	0.099167	15.075000
7.774853	0.099347	15.121000
7.798932	0.099548	15.168000
7.823504	0.100794	15.214000
7.849072	0.102695	15.261000
7.874146	0.103852	15.307000
7.899607	0.107671	15.353000
7.924627	0.111409	15.399000
7.949702	0.111399	15.446000
7.974793	0.113962	15.492000
7.999334	0.115763	15.538000
8.023929	0.117900	15.584000
8.107816	0.118756	15.630000
8.308683	0.102776	15.785000
8.333894	0.104663	16.156000
8.359338	0.111640	16.203000
8.384647	0.117931	16.249000
8.409804	0.124447	16.295000
8.434840	0.130998	16.342000
8.459646	0.136698	16.387000
8.484828	0.143680	16.433000
8.509149	0.149630	16.480000
8.534015	0.155746	16.526000
8.559186	0.165735	16.572000
8.584298	0.172127	16.619000
8.610001	0.181455	16.664000
8.818772	0.189327	16.712000
8.844368	0.270631	17.097000
8.869444	0.277296	17.143000
8.894691	0.283817	17.190000
8.919520	0.288035	17.236000
8.944020	0.293857	17.282000
8.968836	0.297831	17.328000
8.993408	0.298200	17.375000
9.018789	0.297969	17.421000
9.044028	0.299254	17.467000
9.069704	0.299388	17.514000
9.094840	0.295935	17.560000
9.120084	0.293172	17.606000
9.145164	0.290034	17.652000
9.169890	0.284262	17.698000
9.194383	0.279555	17.744000
9.218594	0.275368	17.789000
9.303489	0.270649	17.836000
9.386172	0.249850	17.991000
9.410542	0.243628	18.144000
9.435448	0.238203	18.190000
9.460903	0.231156	18.237000
9.485824	0.219826	18.283000
9.511185	0.210618	18.329000
9.536889	0.199562	18.376000
9.562234	0.186375	18.422000
9.586978	0.170970	18.469000
9.612169	0.151632	18.514000
9.636560	0.133090	18.561000
9.661370	0.118125	18.607000
9.686143	0.099237	18.653000
9.711603	0.080991	18.700000
9.736928	0.063570	18.745000
9.761542	0.044582	18.791000
9.786947	0.026492	18.838000
9.812264	0.007883	18.884000
9.895710	-0.008798	18.931000
9.980666	-0.088396	19.086000
10.006411	-0.096706	19.244000
10.031953	-0.102808	19.291000
10.056726	-0.108629	19.336000
10.082314	-0.112748	19.383000
10.107463	-0.114541	19.430000
10.132810	-0.118124	19.475000
10.157328	-0.118848	19.521000
10.181727	-0.118539	19.568000
10.207156	-0.116070	19.614000
10.232065	-0.111248	19.661000
10.257749	-0.106886	19.707000
10.282462	-0.100379	19.753000
10.307775	-0.093013	19.800000
10.332781	-0.086127	19.846000
10.358101	-0.077143	19.892000
10.383044	-0.067949	19.939000
10.406922	-0.060248	19.984000
10.491057	-0.048645	20.030000
10.576903	0.017358	20.185000
10.601996	0.024134	20.344000
10.627414	0.027436	20.390000
10.652688	0.022539	20.436000
10.677868	0.014949	20.483000
10.702605	0.002615	20.529000
10.727194	-0.014239	20.575000
10.752029	-0.034252	20.622000
10.777580	-0.060993	20.668000
10.802832	-0.089921	20.714000
10.827744	-0.122591	20.761000
10.853291	-0.161115	20.807000
10.878605	-0.201369	20.853000
10.903911	-0.245314	20.900000
10.928954	-0.287006	20.946000
10.953878	-0.326767	20.992000
10.977858	-0.370352	21.039000
11.003170	-0.411952	21.085000
11.087406	-0.455191	21.131000
11.287837	-0.836850	21.286000
11.313047	-0.860248	21.656000
11.338156	-0.881925	21.702000
11.363717	-0.903567	21.749000
11.388356	-0.922041	21.795000
11.413968	-0.940625	21.841000
11.438804	-0.958520	21.887000
11.463083	-0.974871	21.935000
11.488563	-0.994030	21.981000
11.513306	-1.012268	22.027000
11.538997	-1.033569	22.073000
11.563825	-1.053089	22.119000
11.589053	-1.071901	22.166000
11.797277	-1.090333	22.212000
11.823152	-1.145193	22.597000
11.848070	-1.142661	22.644000
11.873140	-1.141305	22.690000
11.898197	-1.137536	22.737000
11.922323	-1.136550	22.783000
11.947397	-1.135174	22.828000
11.973003	-1.134543	22.875000
11.997916	-1.136785	22.921000
12.022781	-1.139718	22.967000
12.048349	-1.141976	23.013000
12.073515	-1.145904	23.060000
12.098312	-1.148991	23.106000
12.123121	-1.152700	23.152000
12.147705	-1.157444	23.199000
12.172943	-1.163465	23.245000
12.198091	-1.170311	23.291000
12.282541	-1.178023	23.338000
12.364172	-1.233378	23.492000
12.389187	-1.246855	23.644000
12.414581	-1.259139	23.690000
12.439662	-1.273684	23.737000
12.465094	-1.287996	23.783000
12.490379	-1.302499	23.830000
12.515301	-1.316885	23.876000
12.540280	-1.327234	23.922000
12.564767	-1.340510	23.968000
12.590075	-1.355567	24.015000
12.614569	-1.367584	24.061000
12.640492	-1.380413	24.107000
12.665506	-1.391261	24.154000
12.691159	-1.403699	24.201000
12.716253	-1.418001	24.246000
12.741607	-1.432792	24.293000
12.766814	-1.451222	24.339000
12.791568	-1.470229	24.386000
12.874347	-1.491248	24.432000
12.960006	-1.633022	24.586000
12.985068	-1.656283	24.744000
13.010595	-1.679232	24.790000
13.035541	-1.701484	24.836000
13.060470	-1.721582	24.882000
13.084629	-1.743319	24.927000
13.109640	-1.765252	24.974000
13.134332	-1.783981	25.020000
13.159254	-1.803614	25.067000
13.184742	-1.817436	25.113000
13.209879	-1.830005	25.159000
13.235808	-1.842476	25.205000
13.260715	-1.852086	25.251000
13.285549	-1.863144	25.298000
13.309823	-1.872431	25.344000
13.334655	-1.881509	25.390000
13.360605	-1.891580	25.437000
13.385451	-1.899329	25.483000
13.469920	-1.909499	25.529000
13.556177	-1.962492	25.684000
13.581367	-1.966555	25.844000
13.606687	-1.971360	25.889000
13.630743	-1.973702	25.937000
13.655860	-1.974523	25.983000
13.680836	-1.976105	26.029000
13.706270	-1.975088	26.075000
13.730743	-1.973197	26.121000
13.756155	-1.970334	26.168000
13.781627	-1.967066	26.214000
13.806499	-1.963197	26.260000
13.830911	-1.955005	26.306000
13.855422	-1.946552	26.352000
13.880572	-1.936629	26.398000
13.906014	-1.925874	26.444000
13.930831	-1.915874	26.491000
13.956642	-1.902413	26.537000
13.981775	-1.889131	26.584000
14.065817	-1.877866	26.629000
14.266737	-1.800456	26.784000
14.291903	-1.797002	27.156000
14.316246	-1.795689	27.202000
14.340782	-1.792146	27.248000
14.365996	-1.792186	27.294000
14.391285	-1.794983	27.341000
14.416500	-1.797927	27.387000
14.441747	-1.803564	27.433000
14.466941	-1.808516	27.479000
14.491721	-1.814458	27.525000
14.517151	-1.822293	27.572000
14.541548	-1.828125	27.618000
14.566561	-1.838114	27.664000
14.776255	-1.847074	27.711000
14.800709	-1.934517	28.096000
14.826065	-1.945072	28.143000
14.850954	-1.954120	28.189000
14.876077	-1.963889	28.236000
14.901237	-1.977541	28.282000
14.926519	-1.990678	28.329000
14.952067	-2.010406	28.375000
14.977266	-2.034683	28.421000
15.003470	-2.060261	28.468000
15.028113	-2.088972	28.514000
15.052806	-2.116289	28.561000
15.077861	-2.146422	28.606000
15.102635	-2.174351	28.653000
15.127992	-2.198752	28.699000
15.153296	-2.220559	28.746000
15.178360	-2.235210	28.792000
15.262711	-2.247374	28.838000
15.344008	-2.279794	28.994000
15.369021	-2.283467	29.144000
15.394303	-2.287281	29.190000
15.419517	-2.290623	29.237000
15.444064	-2.294327	29.282000
15.469239	-2.299084	29.329000
15.493835	-2.300892	29.376000
15.519169	-2.303102	29.422000
15.543728	-2.306180	29.468000
15.569214	-2.307685	29.514000
15.594787	-2.310758	29.560000
15.619274	-2.313319	29.606000
15.645256	-2.313802	29.653000
15.669791	-2.314955	29.699000
15.694155	-2.316370	29.745000
15.718631	-2.317909	29.790000
15.743951	-2.320348	29.837000
15.769377	-2.321329	29.883000
15.853712	-2.324101	29.930000
15.940122	-2.353263	30.085000
15.965131	-2.362111	30.244000
15.990353	-2.369658	30.291000
16.015023	-2.376944	30.337000
16.039455	-2.380412	30.384000
16.064819	-2.384041	30.430000
16.090529	-2.383941	30.477000
16.115865	-2.383210	30.523000
16.140943	-2.379307	30.569000
16.166293	-2.374072	30.616000
16.191195	-2.367386	30.662000
16.215968	-2.359879	30.707000
16.240846	-2.354339	30.753000
16.265759	-2.349224	30.800000
16.290775	-2.346207	30.847000
16.315757	-2.345151	30.894000
16.341445	-2.344710	30.939000
16.366387	-2.345486	30.986000
16.450252	-2.347718	31.032000
16.535337	-2.360300	31.187000
16.559465	-2.364493	31.344000
16.585431	-2.366615	31.390000
16.610426	-2.369427	31.437000
16.635720	-2.371810	31.483000
16.661240	-2.372965	31.530000
16.686549	-2.377900	31.576000
16.711613	-2.380383	31.621000
16.736690	-2.383005	31.669000
16.761250	-2.387539	31.714000
16.785808	-2.388990	31.761000
16.810543	-2.393119	31.807000
16.835599	-2.395752	31.853000
16.861181	-2.398509	31.899000
16.886607	-2.400375	31.946000
16.911231	-2.401151	31.992000
16.936757	-2.403363	32.038000
16.961896	-2.402738	32.084000
17.044775	-2.399210	32.130000
17.246151	-2.361085	32.286000
17.270895	-2.364197	32.657000
17.295909	-2.364383	32.703000
17.320849	-2.368202	32.749000
17.346487	-2.372030	32.795000
17.371645	-2.375278	32.841000
17.397154	-2.379752	32.888000
17.421964	-2.382174	32.934000
17.446841	-2.383901	32.979000
17.471149	-2.385592	33.026000
17.495819	-2.384266	33.072000
17.521190	-2.381994	33.118000
17.545773	-2.376775	33.165000
17.755214	-2.369177	33.211000
17.780410	-2.221017	33.596000
17.805468	-2.198561	33.642000
17.830553	-2.176308	33.688000
17.855841	-2.155020	33.735000
17.881213	-2.130750	33.782000
17.906373	-2.109034	33.828000
17.931337	-2.086264	33.874000
17.955676	-2.059550	33.921000
17.980518	-2.035032	33.967000
18.005434	-2.008353	34.013000
18.030492	-1.982645	34.058000
18.055726	-1.954935	34.105000
18.081001	-1.927029	34.151000
18.106262	-1.900070	34.198000
18.131227	-1.872448	34.244000
18.156172	-1.847628	34.290000
18.239530	-1.820419	34.337000
18.323003	-1.650362	34.491000
18.347711	-1.619274	34.644000
18.372048	-1.586995	34.690000
18.397588	-1.553269	34.736000
18.422496	-1.519934	34.783000
18.447350	-1.484972	34.829000
18.472371	-1.448478	34.875000
18.497571	-1.410690	34.921000
18.522822	-1.370012	34.967000
18.548366	-1.331405	35.014000
18.573114	-1.289956	35.060000
18.597897	-1.249738	35.106000
18.622509	-1.209361	35.153000
18.647811	-1.167103	35.199000
18.672969	-1.127141	35.245000
18.698276	-1.085679	35.291000
18.723311	-1.043765	35.338000
18.748822	-1.004984	35.384000
18.832481	-0.964967	35.431000
18.917619	-0.754222	35.585000
18.942412	-0.724760	35.744000
18.967295	-0.692095	35.789000
18.993188	-0.663043	35.836000
19.017992	-0.631670	35.882000
19.043338	-0.600556	35.928000
19.068734	-0.571408	35.975000
19.094078	-0.539532	36.021000
19.119061	-0.511188	36.068000
19.142960	-0.484124	36.114000
19.167726	-0.456221	36.160000
19.192908	-0.431654	36.206000
19.218404	-0.408288	36.252000
19.243642	-0.385631	36.299000
19.268974	-0.364857	36.344000
19.293832	-0.342732	36.391000
19.319241	-0.321073	36.437000
19.344902	-0.298352	36.484000
19.427148	-0.274826	36.530000
19.513573	-0.150476	36.685000
19.538915	-0.129218	36.844000
19.563835	-0.109084	36.890000
19.589040	-0.087262	36.936000
19.613998	-0.064061	36.982000
19.639184	-0.043747	37.028000
19.663777	-0.020101	37.074000
19.688754	0.003859	37.121000
19.713693	0.026502	37.167000
19.738587	0.052895	37.214000
19.764119	0.076922	37.259000
19.789121	0.102371	37.306000
19.814663	0.129461	37.352000
19.839390	0.155271	37.398000
19.864928	0.182796	37.445000
19.889473	0.208025	37.491000
19.914679	0.232533	37.537000
19.939467	0.255244	37.584000
20.023190	0.278130	37.631000
20.224295	0.485996	37.785000
20.249330	0.507611	38.156000
20.274938	0.527965	38.202000
20.299819	0.551848	38.248000
20.324710	0.573393	38.294000
20.349921	0.593347	38.341000
20.374161	0.612830	38.387000
20.399040	0.630501	38.433000
20.424117	0.645440	38.479000
20.449749	0.659864	38.525000
20.474543	0.671308	38.572000
20.500183	0.687112	38.618000
20.525542	0.701722	38.665000
20.734486	0.715594	38.711000
20.759682	0.823691	39.097000
20.784807	0.836807	39.143000
20.809680	0.850170	39.190000
20.834388	0.864442	39.235000
20.859044	0.876556	39.281000
20.884117	0.893343	39.328000
20.909196	0.908938	39.375000
20.934652	0.924577	39.421000
20.959627	0.939856	39.468000
20.985637	0.953659	39.514000
21.010624	0.970445	39.561000
21.036077	0.986549	39.607000
21.060872	1.002375	39.653000
21.086106	1.019646	39.700000
21.110334	1.033474	39.746000
21.135051	1.050685	39.792000
21.219975	1.066670	39.838000
21.300818	1.153006	39.994000
21.325386	1.166583	40.143000
21.350509	1.181779	40.190000
21.376185	1.192793	40.236000
21.401725	1.208345	40.283000
21.426733	1.220038	40.329000
21.452178	1.232916	40.376000
21.477517	1.246928	40.422000
21.502399	1.256653	40.469000
21.526879	1.266712	40.515000
21.551139	1.275523	40.561000
21.576627	1.284173	40.607000
21.601326	1.294032	40.653000
21.626910	1.301489	40.700000
21.651568	1.310843	40.745000
21.676749	1.319338	40.791000
21.701266	1.325088	40.836000
21.725112	1.334116	40.882000
21.810320	1.339526	40.928000
21.896403	1.394037	41.085000
21.921891	1.408561	41.244000
21.946916	1.421848	41.290000
