Sample	2mm tape 
date	07/01/2025
	
Temperature (K)	77.00
Angle (deg.)	0.000000
field / T	0.600000
	
		
Approx. trace time (s)	120.0	
		
Current / A	V1  -sample/ uV	time/s
-0.017933	0.737724	0.000000
-0.018448	0.764279	0.046000
-0.019216	0.768257	0.092000
-0.018442	0.793394	0.247000
-0.018522	0.799115	0.293000
-0.018712	0.810999	0.339000
-0.018085	0.816259	0.385000
-0.018908	0.817854	0.432000
-0.018190	0.824931	0.478000
-0.019117	0.832991	0.524000
-0.018288	0.840756	0.570000
-0.018019	0.853534	0.616000
-0.018466	0.870980	0.662000
-0.018097	0.876271	0.708000
0.175382	0.961361	0.754000
0.201182	0.964579	1.128000
0.294916	0.976931	1.174000
0.318796	1.026777	1.347000
0.345051	1.030656	1.394000
0.368894	1.035761	1.440000
0.393949	1.045070	1.486000
0.419510	1.052782	1.533000
0.445051	1.065608	1.578000
0.470084	1.073741	1.624000
0.495111	1.086533	1.671000
0.519632	1.077860	1.716000
0.543639	1.085972	1.763000
0.569130	1.089030	1.809000
0.656085	1.094836	1.854000
0.680999	1.106543	2.016000
0.706707	1.097922	2.062000
0.731396	1.098751	2.109000
0.756488	1.093580	2.154000
0.781263	1.120685	2.200000
0.807179	1.120086	2.246000
1.005330	1.102294	2.293000
1.029785	1.121739	2.659000
1.054640	1.125567	2.705000
1.079401	1.123529	2.751000
1.104682	1.106703	2.797000
1.130239	1.119956	2.844000
1.155198	1.130455	2.891000
1.252207	1.136287	2.937000
1.278012	1.135143	3.116000
1.302329	1.125868	3.163000
1.327971	1.136307	3.209000
1.353283	1.137922	3.256000
1.378424	1.132678	3.301000
1.403162	1.126208	3.348000
1.486628	1.123569	3.394000
1.511629	1.135483	3.549000
1.536875	1.119052	3.595000
1.561971	1.122275	3.642000
1.587658	1.101685	3.688000
1.612063	1.108693	3.734000
1.637094	1.098936	3.780000
1.661641	1.094826	3.827000
1.686785	1.084937	3.873000
1.712136	1.093820	3.919000
1.737395	1.092779	3.965000
1.762538	1.081914	4.012000
1.848213	1.086053	4.058000
1.873476	1.078060	4.216000
1.898158	1.078466	4.262000
1.923139	1.069958	4.308000
1.947366	1.069187	4.354000
1.972348	1.069427	4.399000
1.997038	1.079437	4.446000
2.081956	1.082144	4.492000
2.106946	1.078626	4.647000
2.131594	1.057486	4.693000
2.155928	1.084031	4.739000
2.180755	1.106603	4.785000
2.205640	1.102920	4.831000
2.230634	1.091853	4.877000
2.256140	1.099246	4.924000
2.281711	1.094796	4.969000
2.306462	1.100581	5.016000
2.331275	1.103489	5.061000
2.355171	1.109908	5.107000
2.444380	1.097238	5.153000
2.469276	1.111786	5.317000
2.493952	1.115329	5.363000
2.518752	1.107033	5.408000
2.543348	1.117968	5.455000
2.568865	1.107819	5.501000
2.594047	1.109688	5.546000
2.677702	1.107249	5.593000
2.702561	1.098082	5.747000
2.727181	1.099036	5.794000
2.752219	1.100891	5.840000
2.776853	1.088495	5.886000
2.802591	1.092699	5.932000
2.827661	1.109956	5.978000
2.852791	1.100511	6.024000
2.877326	1.102056	6.069000
2.901798	1.097348	6.116000
2.926540	1.087419	6.162000
2.951414	1.093935	6.208000
3.155250	1.075758	6.255000
3.180120	1.077851	6.629000
3.272088	1.075138	6.675000
3.297788	1.058913	6.847000
3.322900	1.055084	6.893000
3.348246	1.059554	6.939000
3.373510	1.062802	6.986000
3.398681	1.056250	7.032000
3.423834	1.055825	7.079000
3.448760	1.049049	7.125000
3.473147	1.052307	7.171000
3.498055	1.056025	7.217000
3.523371	1.054569	7.263000
3.548078	1.040526	7.309000
3.635156	1.056530	7.355000
3.660290	1.034981	7.517000
3.685811	1.055074	7.563000
3.710825	1.050200	7.609000
3.736478	1.043423	7.655000
3.761497	1.044609	7.702000
3.785068	1.047312	7.748000
3.983875	1.046761	7.794000
4.008724	1.026202	8.161000
4.033866	1.018646	8.206000
4.058929	1.023850	8.253000
4.084060	1.021007	8.298000
4.109506	1.008701	8.344000
4.134213	1.006975	8.390000
4.231348	0.996259	8.436000
4.256398	1.022684	8.616000
4.281229	1.009146	8.662000
4.305346	0.997060	8.708000
4.330298	1.002540	8.754000
4.354983	1.011253	8.800000
4.380658	0.997686	8.846000
4.464784	0.997100	8.892000
4.490021	0.974389	9.047000
4.514856	0.982832	9.093000
4.539606	0.982621	9.140000
4.564117	0.960606	9.186000
4.589518	0.964390	9.232000
4.614835	0.970210	9.279000
4.640025	0.964931	9.324000
4.664884	0.969915	9.371000
4.690184	0.966186	9.417000
4.715159	0.963039	9.463000
4.739960	0.964300	9.510000
4.827029	0.965776	9.556000
4.852111	0.956718	9.717000
4.876585	0.961472	9.763000
4.901383	0.963414	9.809000
4.926947	0.958850	9.856000
4.952270	0.962388	9.901000
4.977884	0.958084	9.949000
5.061591	0.973313	9.994000
5.086407	0.972572	10.148000
5.110531	0.990744	10.194000
5.135266	0.995665	10.240000
5.160114	0.983348	10.286000
5.184996	1.000599	10.332000
5.210253	0.998692	10.377000
5.234893	0.994352	10.424000
5.260115	1.001585	10.470000
5.284533	1.008812	10.516000
5.308995	1.017469	10.561000
5.334064	1.013676	10.608000
5.422023	1.026553	10.653000
5.446888	1.035731	10.816000
5.472293	1.040565	10.862000
5.497831	1.039329	10.908000
5.522690	1.038738	10.955000
5.547795	1.049323	11.000000
5.572436	1.057316	11.046000
5.655233	1.054759	11.092000
5.680851	1.060924	11.246000
5.705857	1.072410	11.293000
5.731225	1.080543	11.340000
5.756251	1.057276	11.385000
5.781755	1.094695	11.432000
5.806365	1.071164	11.478000
5.830665	1.099547	11.525000
5.855361	1.088895	11.570000
5.880022	1.107849	11.616000
5.905746	1.095381	11.662000
5.930959	1.095642	11.708000
6.132917	1.096222	11.754000
6.157806	1.071849	12.129000
6.251596	1.084296	12.175000
6.276909	1.074102	12.347000
6.301807	1.069398	12.393000
6.326742	1.075448	12.439000
6.350870	1.063347	12.485000
6.375790	1.054729	12.531000
6.400841	1.046076	12.577000
6.425828	1.029300	12.623000
6.451066	1.065404	12.669000
6.476023	1.050871	12.715000
6.501531	1.061766	12.761000
6.526561	1.048598	12.808000
6.614121	1.046045	12.854000
6.639446	1.036467	13.016000
6.664954	1.035972	13.063000
6.688893	1.039965	13.109000
6.713826	1.042156	13.155000
6.738869	1.039009	13.201000
6.763489	1.033249	13.246000
6.962344	1.041631	13.293000
6.987585	1.058612	13.659000
7.012491	1.026172	13.706000
7.037569	1.037352	13.751000
7.062283	1.038459	13.798000
7.087261	1.041882	13.844000
7.111729	1.037823	13.890000
7.210082	1.032718	13.936000
7.234880	1.023259	14.116000
7.259422	1.021228	14.163000
7.284484	1.013941	14.209000
7.310234	0.999757	14.255000
7.335432	1.014662	14.302000
7.360876	1.012179	14.348000
7.444929	1.011293	14.395000
7.468790	1.024585	14.549000
7.494371	0.979544	14.595000
7.519170	0.985659	14.641000
7.544047	0.989187	14.688000
7.569773	0.981886	14.734000
7.594916	0.979594	14.780000
7.620340	0.969153	14.826000
7.645483	0.971636	14.873000
7.670115	0.962207	14.919000
7.694559	0.959605	14.965000
7.719368	0.955551	15.011000
7.805487	0.920885	15.057000
7.830899	0.911706	15.216000
7.855645	0.927265	15.262000
7.881301	0.921355	15.309000
7.906597	0.910951	15.355000
7.930959	0.908268	15.401000
7.956254	0.913998	15.447000
8.039169	0.907092	15.493000
8.064698	0.904289	15.648000
8.089804	0.906982	15.694000
8.114979	0.896207	15.741000
8.140556	0.891462	15.787000
8.165231	0.896127	15.833000
8.190480	0.908659	15.879000
8.215015	0.913463	15.925000
8.239297	0.917256	15.971000
8.264298	0.917547	16.017000
8.289167	0.917517	16.063000
8.315008	0.919103	16.110000
8.401486	0.919999	16.156000
8.426581	0.933922	16.316000
8.451476	0.931369	16.362000
8.476703	0.929297	16.408000
8.501213	0.914068	16.454000
8.525484	0.939216	16.499000
8.550439	0.942955	16.545000
8.635201	0.943651	16.592000
8.660277	0.942054	16.746000
8.685598	0.938916	16.793000
8.710299	0.940493	16.839000
8.735005	0.935619	16.886000
8.759607	0.926524	16.932000
8.785022	0.943841	16.978000
8.809743	0.943401	17.024000
8.835212	0.938536	17.070000
8.860114	0.935098	17.116000
8.885547	0.932221	17.162000
8.910454	0.918292	17.208000
9.112086	0.900791	17.255000
9.137578	0.888334	17.629000
9.231345	0.890096	17.675000
9.256564	0.873467	17.847000
9.280884	0.889300	17.893000
9.306018	0.885040	17.940000
9.330580	0.880463	17.986000
9.355710	0.889000	18.032000
9.381001	0.884271	18.078000
9.405967	0.879179	18.125000
9.431337	0.883106	18.170000
9.456395	0.883006	18.217000
9.481665	0.872738	18.263000
9.505851	0.879120	18.309000
9.593697	0.878439	18.354000
9.618287	0.870579	18.516000
9.642944	0.865207	18.563000
9.668055	0.854389	18.609000
9.693483	0.858022	18.655000
9.718944	0.853938	18.702000
9.743893	0.851075	18.747000
9.942350	0.836093	18.794000
9.967771	0.790894	19.161000
9.992026	0.803462	19.206000
10.017252	0.806001	19.253000
10.041609	0.799819	19.299000
10.066895	0.789139	19.345000
10.091761	0.796506	19.390000
10.188511	0.786961	19.437000
10.213862	0.791618	19.617000
10.238991	0.793877	19.663000
10.264408	0.787845	19.709000
10.289241	0.791899	19.755000
10.314848	0.791758	19.801000
10.338969	0.790374	19.847000
10.422418	0.789370	19.892000
10.447107	0.783358	20.048000
10.472905	0.781728	20.094000
10.497922	0.783588	20.141000
10.523137	0.783909	20.186000
10.548437	0.784482	20.233000
10.573241	0.783238	20.279000
10.597870	0.786187	20.325000
10.622192	0.790774	20.371000
10.647144	0.795131	20.417000
10.672489	0.795231	20.463000
10.697638	0.793313	20.509000
10.785256	0.796021	20.555000
10.810151	0.792913	20.716000
10.835641	0.791728	20.763000
10.860066	0.794518	20.809000
10.885144	0.794776	20.855000
10.909332	0.794877	20.900000
10.934031	0.786197	20.946000
11.018564	0.786337	20.993000
11.043662	0.782893	21.148000
11.069532	0.782574	21.194000
11.094496	0.780185	21.241000
11.119252	0.781829	21.287000
11.143346	0.802448	21.333000
11.167954	0.800379	21.379000
11.193147	0.803982	21.424000
11.218022	0.799618	21.471000
11.243281	0.796786	21.517000
11.268629	0.796576	21.563000
11.293609	0.790654	21.609000
11.380857	0.799494	21.655000
11.405806	0.797750	21.816000
11.430493	0.793432	21.863000
11.454852	0.802897	21.909000
11.479632	0.804656	21.955000
11.504839	0.790844	22.001000
11.530267	0.803802	22.047000
11.614546	0.809804	22.093000
11.639702	0.814995	22.248000
11.664391	0.814181	22.294000
11.688619	0.816810	22.340000
11.713608	0.814945	22.386000
11.738979	0.816989	22.432000
11.763766	0.822712	22.477000
11.788617	0.819538	22.524000
11.814017	0.825964	22.570000
11.839225	0.822981	22.617000
11.863749	0.825604	22.662000
11.888255	0.821197	22.709000
12.091676	0.842944	22.754000
12.117027	0.823375	23.129000
12.208939	0.826648	23.175000
12.233844	0.825050	23.347000
12.258861	0.822672	23.393000
12.284135	0.817744	23.439000
12.309165	0.834544	23.485000
12.334333	0.823030	23.531000
12.359729	0.840800	23.577000
12.384126	0.835299	23.622000
12.409170	0.825734	23.670000
12.433266	0.819079	23.716000
12.458468	0.819397	23.762000
12.483628	0.813147	23.807000
12.571363	0.810133	23.853000
12.597115	0.807005	24.017000
12.622067	0.791818	24.062000
12.647113	0.798614	24.109000
12.672104	0.793303	24.155000
12.697349	0.791889	24.200000
12.722277	0.799125	24.247000
12.920646	0.799969	24.293000
12.945721	0.787850	24.661000
12.970784	0.781580	24.707000
12.995731	0.786117	24.754000
13.020657	0.790294	24.800000
13.046038	0.787271	24.846000
13.071240	0.791113	24.891000
13.167826	0.793777	24.938000
13.192747	0.789320	25.116000
13.217902	0.769632	25.162000
13.242960	0.801554	25.208000
13.267654	0.795552	25.254000
13.292609	0.811237	25.301000
13.317359	0.800708	25.347000
13.401322	0.810033	25.393000
13.426717	0.826054	25.548000
13.451823	0.834325	25.594000
13.476915	0.842635	25.640000
13.501053	0.845988	25.686000
13.526030	0.854972	25.733000
13.551134	0.851910	25.779000
13.576010	0.863223	25.825000
13.601394	0.859820	25.871000
13.626371	0.869734	25.918000
13.652188	0.876880	25.964000
13.677054	0.884281	26.010000
13.763771	0.903053	26.057000
13.788717	0.889140	26.217000
13.813800	0.895916	26.263000
13.838372	0.913877	26.309000
13.863031	0.900475	26.355000
13.887768	0.914017	26.400000
13.913107	0.916039	26.447000
13.997631	0.921785	26.493000
14.022785	0.925273	26.648000
14.046664	0.937349	26.694000
14.071142	0.931144	26.739000
14.095939	0.943841	26.786000
14.121466	0.940432	26.832000
14.146577	0.938280	26.877000
14.171843	0.940877	26.924000
14.196948	0.937950	26.970000
14.222202	0.946968	27.017000
14.247086	0.970570	27.063000
14.271232	0.962378	27.109000
14.359338	0.987831	27.155000
14.383370	0.979353	27.317000
14.408791	0.986029	27.362000
14.433547	0.994122	27.409000
14.459266	0.996600	27.455000
14.484554	1.002950	27.501000
14.509475	1.004742	27.547000
14.593083	1.006038	27.593000
14.617583	1.020552	27.748000
14.642619	1.017298	27.795000
14.667927	1.023259	27.841000
14.692995	1.029290	27.887000
14.718041	1.024171	27.933000
14.743120	1.033804	27.979000
14.768424	1.044034	28.025000
14.792869	1.043854	28.071000
14.817061	1.058267	28.116000
14.842305	1.049103	28.163000
14.867468	1.050054	28.210000
15.070512	1.057161	28.255000
15.095260	1.057486	28.629000
15.188527	1.050249	28.675000
15.213681	1.053402	28.847000
15.239053	1.056480	28.893000
15.264586	1.049884	28.940000
15.289466	1.045785	28.986000
15.314663	1.057896	29.032000
15.338854	1.054578	29.078000
15.363356	1.051200	29.124000
15.388436	1.056900	29.170000
15.413528	1.048858	29.216000
15.438349	1.042837	29.262000
15.463755	1.039865	29.308000
15.551497	1.035740	29.354000
15.576635	1.031812	29.517000
15.601937	1.019620	29.563000
15.626796	1.016923	29.609000
15.652068	1.015687	29.655000
15.676775	0.995163	29.702000
15.701348	0.986040	29.748000
15.900134	0.992070	29.794000
15.925758	0.957493	30.162000
15.950507	0.957984	30.208000
15.975822	0.946528	30.254000
16.001101	0.941618	30.299000
16.026169	0.932715	30.346000
16.050989	0.924692	30.392000
16.147657	0.899855	30.439000
16.172818	0.864918	30.616000
16.197691	0.873772	30.663000
16.221846	0.873762	30.709000
16.246781	0.857131	30.756000
16.272179	0.861733	30.801000
16.297252	0.853958	30.848000
16.381349	0.862158	30.894000
16.405982	0.835983	31.048000
16.430295	0.847866	31.094000
16.454709	0.831996	31.139000
16.479903	0.825308	31.185000
16.505226	0.829805	31.232000
16.530908	0.820143	31.278000
16.555798	0.823826	31.324000
16.580888	0.812260	31.371000
16.605339	0.811432	31.417000
16.629627	0.806081	31.462000
16.654588	0.811972	31.508000
16.743077	0.801563	31.555000
16.767339	0.796030	31.717000
16.792285	0.795810	31.762000
16.817762	0.807939	31.809000
16.842735	0.784226	31.855000
16.867796	0.814589	31.900000
16.893163	0.806409	31.946000
16.975664	0.812122	31.993000
17.000518	0.817674	32.147000
17.025392	0.842185	32.192000
17.051535	0.841341	32.239000
17.076370	0.841171	32.286000
17.101725	0.843149	32.332000
17.127267	0.826114	32.378000
17.151884	0.844263	32.425000
17.176704	0.856717	32.471000
17.200688	0.846902	32.517000
17.225888	0.852754	32.563000
17.250955	0.860418	32.609000
17.338529	0.864567	32.655000
17.363560	0.856507	32.817000
17.388792	0.851670	32.863000
17.413988	0.850776	32.909000
17.439348	0.854588	32.956000
17.464424	0.856457	33.002000
17.489052	0.857096	33.047000
17.572319	0.860020	33.094000
17.597191	0.869998	33.248000
17.622546	0.867056	33.294000
17.647661	0.859930	33.340000
17.672902	0.860754	33.387000
17.698482	0.870789	33.433000
17.722838	0.859610	33.479000
17.747372	0.868240	33.526000
17.772189	0.864697	33.572000
17.797289	0.869435	33.617000
17.822671	0.855383	33.664000
17.847122	0.864317	33.710000
18.049051	0.882162	33.755000
18.073876	0.870259	34.129000
18.167722	0.867890	34.175000
18.193237	0.881962	34.347000
18.218037	0.889840	34.394000
18.242505	0.876711	34.440000
18.267359	0.882846	34.486000
18.291883	0.870629	34.532000
18.316572	0.870469	34.578000
18.342353	0.867740	34.624000
18.367194	0.867890	34.670000
18.392659	0.860449	34.715000
18.417645	0.876860	34.761000
18.442886	0.874631	34.809000
18.530806	0.850205	34.854000
18.555450	0.861493	35.017000
18.580260	0.868411	35.063000
18.604668	0.861124	35.109000
18.629705	0.863613	35.155000
18.654788	0.872707	35.201000
18.680103	0.861878	35.246000
18.878941	0.867840	35.293000
18.903976	0.838441	35.660000
18.929504	0.860409	35.706000
18.953841	0.872828	35.752000
18.978227	0.873802	35.798000
19.003075	0.872243	35.844000
19.027952	0.871914	35.890000
19.126004	0.879493	35.936000
19.150432	0.886910	36.116000
19.175695	0.892073	36.163000
19.200423	0.884919	36.209000
19.226437	0.889390	36.255000
19.251287	0.893329	36.302000
19.276560	0.890086	36.347000
19.360102	0.891522	36.394000
19.384389	0.896006	36.549000
19.409438	0.892828	36.595000
19.434468	0.903423	36.641000
19.460108	0.901161	36.686000
19.484695	0.904068	36.733000
19.509785	0.905140	36.779000
19.534964	0.913042	36.825000
19.559634	0.916961	36.871000
19.584052	0.912681	36.917000
19.608979	0.910850	36.963000
19.635030	0.912801	37.010000
19.721440	0.935498	37.056000
19.746411	0.932625	37.217000
19.771933	0.938525	37.263000
19.797102	0.934817	37.309000
19.822458	0.931174	37.355000
19.847487	0.936834	37.402000
19.871609	0.929858	37.448000
19.954913	0.961192	37.494000
19.980633	0.976261	37.648000
20.005752	0.974509	37.694000
20.030797	0.981726	37.741000
20.055989	0.977356	37.787000
20.081112	0.968048	37.833000
20.105136	0.975515	37.879000
20.130345	0.982792	37.926000
20.155647	0.990754	37.972000
20.180436	0.990563	38.018000
20.205787	1.000108	38.064000
20.231373	0.988953	38.111000
20.317466	1.008691	38.157000
20.342528	1.008581	38.317000
20.367614	1.016743	38.363000
20.392561	1.030686	38.409000
20.416942	1.032483	38.455000
20.441992	1.041141	38.501000
20.466729	1.044779	38.547000
20.551214	1.042778	38.593000
20.576985	1.060689	38.748000
20.601161	1.067355	38.794000
20.626155	1.070844	38.840000
20.650569	1.080948	38.887000
20.675310	1.087279	38.932000
20.700525	1.090997	38.979000
20.725416	1.099237	39.025000
20.751075	1.105759	39.070000
20.776361	1.111270	39.117000
20.801614	1.117367	39.163000
20.826753	1.133423	39.210000
21.028319	1.187103	39.256000
21.053818	1.190356	39.629000
21.146799	1.197983	39.676000
21.171250	1.241358	39.847000
21.195636	1.256734	39.893000
21.221050	1.259717	39.940000
21.245995	1.269152	39.986000
21.271525	1.274738	40.032000
21.296323	1.293953	40.077000
21.321418	1.298710	40.124000
21.346406	1.311898	40.169000
21.370488	1.314766	40.215000
21.394685	1.325545	40.261000
21.419697	1.338137	40.307000
21.508976	1.400510	40.352000
21.533623	1.414213	40.517000
21.558758	1.417296	40.563000
21.583767	1.426550	40.609000
21.608980	1.421330	40.655000
21.634215	1.461913	40.702000
21.659361	1.473103	40.747000
21.858309	1.485044	40.794000
21.882379	1.599385	41.161000
21.906542	1.618034	41.206000
21.931914	1.645398	41.252000
21.956394	1.652968	41.297000
21.981885	1.666625	41.344000
22.007172	1.680499	41.390000
22.104020	1.743119	41.436000
22.129517	1.757837	41.617000
22.155076	1.771850	41.663000
22.179521	1.794315	41.709000
22.204521	1.811042	41.755000
22.228999	1.830189	41.801000
22.253173	1.845048	41.847000
22.337741	1.854282	41.893000
22.362699	1.907696	42.047000
22.387449	1.919557	42.092000
22.412584	1.948920	42.139000
22.437086	1.962734	42.185000
22.461819	1.976849	42.230000
22.486035	1.980682	42.276000
22.512023	2.011543	42.322000
22.536886	2.022538	42.368000
22.562315	2.057913	42.415000
22.587244	2.066932	42.461000
22.612891	2.082874	42.507000
22.700819	2.156667	42.553000
22.726017	2.167775	42.717000
22.751241	2.188017	42.763000
22.775715	2.204021	42.809000
22.800871	2.216062	42.855000
22.825316	2.234630	42.902000
22.850218	2.257216	42.948000
22.934636	2.261590	42.993000
22.960037	2.336430	43.148000
22.984951	2.363594	43.194000
23.009465	2.375696	43.240000
23.034081	2.398494	43.286000
23.059114	2.422360	43.332000
23.084254	2.431949	43.379000
23.109448	2.455382	43.425000
23.134538	2.473962	43.472000
23.159873	2.505303	43.517000
23.184569	2.528105	43.562000
23.209692	2.542357	43.610000
