Sample	2mm tape 
date	08/01/2025
	
Temperature (K)	77.00
Angle (deg.)	0.000000
field / T	0.150000
	
		
Approx. trace time (s)	120.0	
		
Current / A	V1  -sample/ uV	time/s
-0.016006	2.482391	0.000000
-0.016055	2.483069	0.046000
-0.016000	2.484103	0.092000
-0.015945	2.485259	0.138000
-0.015981	2.484174	0.183000
-0.015829	2.485461	0.229000
-0.016000	2.487913	0.276000
-0.016025	2.487581	0.323000
-0.015933	2.483932	0.368000
-0.015841	2.482452	0.414000
-0.015921	2.480485	0.461000
-0.015963	2.480019	0.508000
-0.015969	2.480363	0.553000
-0.006624	2.483527	0.600000
-0.017755	2.484804	0.646000
-0.017154	2.511933	1.025000
-0.018050	2.510716	1.072000
-0.017761	2.507158	1.118000
0.002176	2.502247	1.164000
0.028327	2.500244	1.210000
0.052715	2.495692	1.257000
0.077771	2.493158	1.303000
0.101245	2.493319	1.349000
0.127306	2.490978	1.395000
0.151701	2.489508	1.440000
0.177426	2.486939	1.487000
0.202562	2.484547	1.534000
0.227860	2.484385	1.579000
0.253745	2.488125	1.627000
0.278583	2.490725	1.673000
0.304050	2.491362	1.718000
0.386516	2.492285	1.765000
0.411560	2.486082	1.920000
0.611490	2.485036	1.965000
0.637098	2.488837	2.336000
0.662313	2.487530	2.382000
0.687320	2.484517	2.429000
0.712652	2.483759	2.475000
0.737711	2.484814	2.520000
0.762564	2.482205	2.567000
0.786611	2.479126	2.613000
0.811692	2.477758	2.660000
0.836675	2.475285	2.705000
0.862574	2.474382	2.752000
0.887562	2.473256	2.798000
0.978951	2.472544	2.845000
1.003436	2.466413	3.013000
1.093252	2.458458	3.059000
1.118312	2.458281	3.224000
1.142270	2.455233	3.270000
1.167571	2.452169	3.316000
1.192333	2.448742	3.362000
1.217605	2.446058	3.408000
1.242559	2.444305	3.453000
1.267701	2.444235	3.500000
1.293010	2.446078	3.546000
1.318362	2.447965	3.593000
1.343153	2.447435	3.638000
1.367803	2.445491	3.686000
1.392417	2.442317	3.732000
1.417614	2.436871	3.778000
1.442651	2.433212	3.824000
1.467492	2.431056	3.870000
1.492888	2.430758	3.916000
1.576243	2.430778	3.962000
1.601312	2.430667	4.116000
1.688567	2.416294	4.162000
1.713132	2.410805	4.323000
1.738467	2.406364	4.370000
1.763714	2.402972	4.416000
1.788506	2.400045	4.462000
1.814080	2.396421	4.509000
1.838914	2.393580	4.554000
1.864170	2.389233	4.601000
1.888326	2.385780	4.646000
1.913050	2.381065	4.692000
1.937729	2.376353	4.739000
1.963584	2.374908	4.785000
1.988867	2.374736	4.831000
2.013846	2.373093	4.879000
2.039694	2.368716	4.925000
2.064888	2.363287	4.971000
2.089405	2.362043	5.017000
2.172091	2.358238	5.063000
2.197178	2.346920	5.217000
2.284266	2.326908	5.263000
2.309380	2.321555	5.424000
2.335024	2.317182	5.470000
2.359842	2.312765	5.516000
2.385434	2.312724	5.563000
2.410864	2.309595	5.610000
2.435428	2.306705	5.656000
2.459866	2.301932	5.701000
2.484241	2.299663	5.748000
2.509692	2.295427	5.794000
2.534644	2.289366	5.840000
2.560346	2.285934	5.887000
2.586009	2.281001	5.934000
2.611226	2.279884	5.980000
2.636027	2.280343	6.026000
2.661366	2.283437	6.073000
2.686116	2.289144	6.119000
2.884164	2.290615	6.165000
2.909305	2.260918	6.532000
2.934250	2.259437	6.578000
2.959398	2.259447	6.624000
2.984487	2.258503	6.670000
3.009538	2.259876	6.716000
3.034878	2.261611	6.762000
3.059946	2.261034	6.808000
3.084385	2.264067	6.854000
3.109428	2.262677	6.901000
3.133887	2.260943	6.947000
3.159157	2.256404	6.993000
3.184023	2.257172	7.040000
3.209967	2.256313	7.086000
3.234913	2.257132	7.132000
3.259656	2.253988	7.178000
3.284850	2.250708	7.224000
3.367861	2.248251	7.270000
3.392751	2.249560	7.425000
3.592058	2.247689	7.471000
3.617653	2.246830	7.839000
3.643197	2.249337	7.885000
3.667958	2.248190	7.932000
3.693332	2.247679	7.979000
3.718719	2.248200	8.025000
3.743395	2.251314	8.071000
3.767923	2.254746	8.118000
3.792951	2.258557	8.163000
3.818326	2.257339	8.211000
3.843730	2.258441	8.257000
3.868632	2.255742	8.303000
3.956677	2.253659	8.349000
3.982069	2.253022	8.512000
4.070932	2.270037	8.558000
4.095948	2.273135	8.723000
4.121375	2.277539	8.769000
4.146646	2.283214	8.816000
4.172079	2.242938	8.863000
4.196907	2.297307	8.909000
4.222285	2.306815	8.955000
4.247004	2.309802	9.001000
4.271742	2.312350	9.047000
4.296813	2.314306	9.093000
4.321433	2.316824	9.140000
4.346594	2.323404	9.187000
4.372067	2.329517	9.233000
4.397019	2.334258	9.279000
4.422036	2.340076	9.325000
4.447796	2.344291	9.371000
4.472757	2.345994	9.418000
4.555769	2.346909	9.463000
4.580573	2.348451	9.619000
4.666786	2.351954	9.664000
4.692204	2.354583	9.824000
4.717197	2.358525	9.869000
4.742543	2.356746	9.915000
4.767526	2.354168	9.962000
4.792689	2.348087	10.009000
4.816714	2.342097	10.054000
4.841887	2.336340	10.101000
4.866707	2.333525	10.146000
4.891990	2.332236	10.193000
4.917318	2.330734	10.239000
4.942509	2.329456	10.286000
4.967712	2.329688	10.331000
4.992638	2.332594	10.378000
5.017652	2.336472	10.425000
5.042610	2.340197	10.471000
5.066656	2.342562	10.517000
5.151079	2.344074	10.562000
5.175825	2.339681	10.717000
5.263249	2.346307	10.763000
5.288485	2.350240	10.924000
5.313905	2.351681	10.970000
5.338814	2.351741	11.016000
5.362990	2.354512	11.062000
5.387758	2.359172	11.109000
5.412433	2.366694	11.155000
5.438350	2.370717	11.202000
5.463382	2.377925	11.247000
5.488548	2.383314	11.293000
5.513167	2.385785	11.339000
5.538384	2.383031	11.385000
5.563068	2.383182	11.431000
5.587498	2.386382	11.478000
5.612670	2.390441	11.523000
5.637561	2.397345	11.570000
5.662770	2.406711	11.616000
5.862169	2.417761	11.661000
5.886945	2.489548	12.029000
5.912333	2.498094	12.076000
5.937323	2.504439	12.122000
5.962826	2.511044	12.169000
5.986828	2.517278	12.214000
6.011533	2.519317	12.261000
6.036699	2.522205	12.307000
6.061942	2.528629	12.352000
6.087409	2.533813	12.400000
6.112534	2.541152	12.446000
6.137838	2.547733	12.492000
6.162612	2.552360	12.538000
6.187402	2.556903	12.584000
6.211803	2.561174	12.630000
6.236932	2.563536	12.677000
6.262237	2.563829	12.723000
6.346269	2.567165	12.769000
6.371736	2.576391	12.923000
6.570701	2.595712	12.970000
6.596316	2.597811	13.339000
6.621267	2.602677	13.385000
6.645628	2.605009	13.430000
6.669937	2.611252	13.477000
6.695218	2.617793	13.523000
6.720806	2.622780	13.569000
6.745885	2.628424	13.616000
6.770343	2.632685	13.661000
6.795651	2.632200	13.707000
6.819972	2.635470	13.752000
6.844202	2.634404	13.798000
6.936271	2.634495	13.843000
6.961557	2.623222	14.012000
7.049840	2.634909	14.059000
7.075018	2.635030	14.224000
7.100156	2.634969	14.269000
7.125637	2.634636	14.316000
7.150870	2.637284	14.362000
7.175467	2.637785	14.408000
7.200489	2.634454	14.455000
7.225587	2.628798	14.502000
7.250429	2.624971	14.548000
7.275419	2.623132	14.593000
7.300421	2.622496	14.641000
7.325962	2.625538	14.686000
7.350652	2.629692	14.732000
7.376354	2.631557	14.779000
7.401293	2.632361	14.825000
7.426129	2.632219	14.872000
7.451496	2.627680	14.918000
7.535842	2.620326	14.965000
7.560697	2.611791	15.120000
7.646610	2.617102	15.165000
7.671673	2.617742	15.324000
7.696821	2.616657	15.369000
7.721972	2.617112	15.416000
7.745760	2.617153	15.462000
7.770498	2.618827	15.508000
7.796218	2.619343	15.554000
7.821439	2.618319	15.601000
7.846394	2.615218	15.647000
7.871676	2.613724	15.693000
7.896653	2.614781	15.739000
7.921991	2.611212	15.785000
7.946453	2.610899	15.831000
7.971414	2.613775	15.878000
7.995735	2.617621	15.924000
8.021722	2.622108	15.970000
8.046319	2.625967	16.017000
8.130886	2.631346	16.063000
8.155882	2.642436	16.218000
8.242649	2.649765	16.264000
8.267190	2.654992	16.424000
8.292180	2.658606	16.470000
8.317524	2.659632	16.517000
8.342119	2.660465	16.563000
8.367914	2.663014	16.609000
8.393027	2.663377	16.656000
8.417875	2.668129	16.702000
8.443174	2.671804	16.748000
8.468439	2.678597	16.795000
8.492966	2.681701	16.841000
8.518089	2.685674	16.887000
8.543007	2.687388	16.934000
8.567840	2.689480	16.980000
8.593087	2.693084	17.026000
8.618464	2.691947	17.073000
8.643435	2.691916	17.119000
8.842389	2.688070	17.165000
8.867815	2.676913	17.532000
8.893387	2.680669	17.579000
8.917661	2.683055	17.625000
8.941818	2.690081	17.670000
8.966273	2.697113	17.716000
8.991504	2.702010	17.762000
9.017166	2.703158	17.809000
9.042172	2.706822	17.855000
9.067930	2.709198	17.901000
9.092674	2.708000	17.947000
9.118322	2.712833	17.994000
9.142875	2.718690	18.041000
9.167109	2.722446	18.087000
9.191951	2.726627	18.133000
9.217002	2.731763	18.179000
9.242575	2.732774	18.225000
9.326880	2.732613	18.271000
9.352263	2.743333	18.427000
9.551744	2.721481	18.473000
9.576560	2.719540	18.841000
9.601469	2.719035	18.887000
9.626416	2.721117	18.934000
9.651135	2.724080	18.980000
9.676296	2.727259	19.026000
9.701455	2.729655	19.073000
9.727002	2.730302	19.119000
9.752233	2.728932	19.164000
9.777325	2.724312	19.211000
9.802210	2.720415	19.258000
9.827201	2.715633	19.304000
9.915499	2.713560	19.351000
9.940175	2.702091	19.513000
10.029297	2.700914	19.559000
10.054794	2.700393	19.724000
10.079990	2.701960	19.770000
10.104477	2.700914	19.816000
10.129517	2.699124	19.862000
10.154652	2.697876	19.910000
10.179569	2.695632	19.956000
10.205192	2.693539	20.002000
10.230187	2.689793	20.048000
10.255956	2.690941	20.095000
10.280895	2.692892	20.142000
10.305920	2.696920	20.188000
10.330860	2.700646	20.234000
10.355528	2.702384	20.280000
10.380327	2.699705	20.327000
10.404594	2.696162	20.373000
10.430486	2.689844	20.419000
10.514909	2.684026	20.464000
10.540425	2.678840	20.620000
10.625635	2.667664	20.666000
10.650283	2.663276	20.824000
10.674333	2.658242	20.870000
10.699328	2.651499	20.916000
10.724609	2.644841	20.962000
10.749709	2.638119	21.008000
10.775450	2.636648	21.054000
10.800351	2.635359	21.101000
10.825879	2.635754	21.147000
10.850932	2.633852	21.194000
10.875344	2.634444	21.240000
10.899930	2.631204	21.286000
10.924963	2.628373	21.332000
10.949908	2.623754	21.378000
10.974971	2.619604	21.424000
11.000523	2.617438	21.470000
11.025490	2.612186	21.516000
11.108534	2.604144	21.562000
11.133934	2.598532	21.718000
11.220428	2.592354	21.763000
11.245502	2.588816	21.923000
11.270285	2.585267	21.970000
11.295695	2.582956	22.015000
11.320328	2.579725	22.062000
11.345620	2.575001	22.108000
11.370516	2.569838	22.154000
11.394830	2.568390	22.200000
11.419697	2.567336	22.245000
11.444717	2.570935	22.292000
11.470347	2.571403	22.339000
11.495640	2.571311	22.384000
11.520400	2.572943	22.431000
11.545750	2.572351	22.477000
11.570775	2.573346	22.523000
11.596025	2.572791	22.569000
11.620186	2.573987	22.616000
11.818539	2.572821	22.662000
11.843773	2.576057	23.029000
11.868977	2.579807	23.075000
11.894051	2.583960	23.121000
11.919724	2.587460	23.167000
11.944947	2.590421	23.213000
11.969518	2.594566	23.259000
11.994790	2.596706	23.305000
12.019092	2.597397	23.352000
12.043815	2.597730	23.398000
12.068951	2.597821	23.445000
12.093957	2.595014	23.490000
12.119349	2.592505	23.537000
12.144797	2.592174	23.583000
12.169445	2.594536	23.629000
12.194863	2.601561	23.676000
12.219159	2.604005	23.721000
12.302432	2.607879	23.766000
12.327953	2.613453	23.922000
12.526747	2.609297	23.969000
12.552449	2.609631	24.337000
12.577481	2.615632	24.383000
12.602996	2.623283	24.429000
12.627812	2.630516	24.475000
12.652746	2.635358	24.522000
12.677263	2.639529	24.568000
12.702099	2.643203	24.613000
12.727314	2.645862	24.660000
12.752290	2.650098	24.706000
12.777787	2.652483	24.752000
12.802817	2.655122	24.799000
12.893753	2.656922	24.845000
12.918348	2.651968	25.013000
13.008544	2.653813	25.059000
13.032951	2.659469	25.223000
13.057342	2.665833	25.269000
13.082061	2.670160	25.315000
13.107435	2.672677	25.361000
13.132827	2.676079	25.408000
13.157356	2.678698	25.453000
13.183446	2.677681	25.500000
13.208316	2.678576	25.546000
13.233128	2.678587	25.593000
13.257753	2.677540	25.639000
13.282576	2.677722	25.686000
13.307487	2.677904	25.732000
13.332862	2.680300	25.778000
13.358225	2.684131	25.824000
13.383591	2.689509	25.869000
13.408487	2.691279	25.916000
13.491692	2.694964	25.963000
13.516584	2.700751	26.117000
13.603403	2.698320	26.163000
13.628316	2.694180	26.324000
13.654083	2.692871	26.371000
13.678839	2.692361	26.417000
13.704278	2.690889	26.462000
13.729145	2.691001	26.509000
13.754327	2.690636	26.555000
13.779271	2.691906	26.601000
13.803293	2.690151	26.647000
13.828653	2.686870	26.694000
13.853312	2.681806	26.740000
13.878854	2.677307	26.786000
13.903969	2.674371	26.831000
13.929247	2.674270	26.877000
13.953748	2.675366	26.924000
13.977987	2.673612	26.969000
14.002299	2.671116	27.014000
14.086596	2.668098	27.060000
14.111442	2.663063	27.216000
14.199202	2.657144	27.262000
14.224585	2.655905	27.424000
14.249646	2.653328	27.470000
14.275037	2.648258	27.516000
14.299805	2.645347	27.563000
14.324995	2.641308	27.608000
14.349743	2.645579	27.655000
14.374499	2.650452	27.702000
14.399669	2.654819	27.748000
14.424811	2.658595	27.794000
14.449832	2.658322	27.839000
14.474939	2.659216	27.886000
14.500188	2.656088	27.932000
14.525650	2.654981	27.979000
14.549843	2.654314	28.025000
14.574252	2.652210	28.071000
14.599143	2.647955	28.117000
14.798056	2.645569	28.163000
14.823446	2.636485	28.529000
14.848666	2.635090	28.576000
14.874003	2.630950	28.623000
14.898916	2.626684	28.668000
14.924388	2.621522	28.715000
14.949176	2.618896	28.762000
14.973480	2.621592	28.809000
14.999442	2.621178	28.854000
15.024396	2.623884	28.901000
15.049519	2.624667	28.946000
15.074598	2.624176	28.993000
15.099663	2.624157	29.039000
15.125680	2.622425	29.085000
15.150635	2.623570	29.131000
15.175332	2.621985	29.177000
15.199442	2.622394	29.224000
15.283183	2.621673	29.270000
15.308416	2.621694	29.424000
15.507672	2.650462	29.471000
15.533056	2.655875	29.838000
15.558084	2.658504	29.885000
15.583397	2.662037	29.931000
15.607471	2.665611	29.977000
15.632551	2.667501	30.023000
15.657685	2.670666	30.069000
15.682334	2.672678	30.115000
15.708274	2.673774	30.162000
15.733343	2.677915	30.207000
15.758301	2.683783	30.253000
15.783173	2.688605	30.300000
15.873217	2.693397	30.346000
15.898212	2.711786	30.513000
15.986416	2.726607	30.560000
16.011839	2.729644	30.724000
16.036832	2.730974	30.769000
16.062347	2.733547	30.815000
16.087305	2.736847	30.862000
16.112738	2.740002	30.907000
16.136808	2.738960	30.954000
16.161956	2.742185	31.000000
16.186618	2.741335	31.046000
16.211827	2.741790	31.093000
16.237426	2.742837	31.139000
16.262077	2.743009	31.185000
16.287765	2.742837	31.231000
16.312989	2.744035	31.278000
16.338241	2.744177	31.324000
16.362847	2.743661	31.370000
16.387338	2.745182	31.417000
16.471311	2.747427	31.463000
16.496048	2.758169	31.618000
16.582990	2.760281	31.664000
16.608215	2.757426	31.823000
16.633441	2.755434	31.870000
16.658779	2.750187	31.916000
16.683324	2.746098	31.962000
16.707581	2.741417	32.008000
16.732617	2.740603	32.055000
16.757885	2.741913	32.101000
16.782959	2.742554	32.147000
16.808044	2.743681	32.193000
16.833300	2.743363	32.238000
16.858271	2.745517	32.285000
16.883747	2.747144	32.331000
16.908336	2.748115	32.378000
16.933048	2.746876	32.424000
16.957871	2.746866	32.470000
16.982566	2.748205	32.516000
17.066604	2.749049	32.562000
17.092345	2.749934	32.717000
17.179276	2.778150	32.762000
17.204051	2.785059	32.923000
17.228942	2.790544	32.970000
17.253533	2.795846	33.016000
17.278368	2.797277	33.062000
17.303567	2.801620	33.108000
17.328894	2.804525	33.155000
17.341627	2.811855	33.201000
17.379017	2.811288	33.247000
17.404501	2.811142	33.293000
17.429244	2.812588	33.338000
17.454242	2.818334	33.386000
17.478251	2.826038	33.432000
17.503426	2.831745	33.478000
17.528562	2.837140	33.524000
17.553704	2.839280	33.570000
17.579050	2.842697	33.615000
17.777583	2.845687	33.662000
17.802898	2.860732	34.029000
17.827988	2.862038	34.075000
17.852810	2.861979	34.122000
17.877500	2.861291	34.168000
17.902172	2.860297	34.214000
17.927871	2.870069	34.261000
17.953188	2.875419	34.307000
17.978417	2.881460	34.353000
18.003582	2.885600	34.400000
18.028402	2.887780	34.445000
18.053292	2.889360	34.492000
18.078331	2.888693	34.538000
18.103500	2.888194	34.585000
18.128415	2.885992	34.631000
18.153419	2.885317	34.677000
18.178531	2.880886	34.723000
18.262628	2.874763	34.769000
18.287501	2.878876	34.924000
18.486804	2.871416	34.970000
18.511923	2.868099	35.338000
18.536411	2.862952	35.385000
18.561051	2.858451	35.430000
18.586739	2.850788	35.477000
18.611267	2.844853	35.523000
18.636976	2.839178	35.570000
18.662385	2.834859	35.617000
18.687412	2.836216	35.662000
18.712807	2.839158	35.709000
18.737110	2.840961	35.755000
18.761836	2.841287	35.801000
18.852105	2.842469	35.847000
18.877495	2.837714	36.013000
18.965943	2.822090	36.059000
18.991642	2.820291	36.224000
19.016289	2.819093	36.269000
19.041500	2.816676	36.316000
19.065924	2.813264	36.362000
19.090632	2.810080	36.409000
19.115503	2.809791	36.455000
19.140559	2.810970	36.501000
19.165937	2.814412	36.547000
19.190705	2.816080	36.591000
19.215932	2.817803	36.639000
19.241644	2.817469	36.685000
19.266295	2.819052	36.731000
19.290882	2.822211	36.777000
19.315534	2.820220	36.824000
19.340636	2.820543	36.870000
19.365943	2.818405	36.916000
19.450630	2.818036	36.962000
19.475734	2.820442	37.117000
19.562008	2.824991	37.163000
19.587029	2.826639	37.324000
19.611268	2.827377	37.370000
19.636240	2.828070	37.416000
19.660882	2.826230	37.462000
19.686309	2.826523	37.508000
19.711390	2.824658	37.554000
19.736580	2.824698	37.600000
19.761607	2.824137	37.646000
19.786593	2.825032	37.692000
19.811845	2.825254	37.739000
19.835844	2.823956	37.785000
19.860937	2.822039	37.830000
19.885693	2.819653	37.877000
19.911144	2.820321	37.923000
19.936396	2.818911	37.969000
19.961390	2.819093	38.015000
20.045559	2.820432	38.061000
20.070292	2.828080	38.217000
20.157451	2.836665	38.262000
20.181771	2.840067	38.423000
20.206907	2.846183	38.470000
20.232334	2.849266	38.516000
20.257311	2.855644	38.562000
20.282497	2.858449	38.608000
20.308089	2.863105	38.655000
20.333765	2.866077	38.702000
20.358214	2.866380	38.748000
20.382887	2.864592	38.794000
20.407672	2.864301	38.840000
20.432396	2.868438	38.886000
20.458275	2.878997	38.932000
20.482830	2.890757	38.979000
20.508402	2.896576	39.024000
20.533316	2.903935	39.071000
20.558823	2.906778	39.118000
20.757565	2.909805	39.164000
20.782423	2.929151	39.531000
20.806832	2.934361	39.577000
20.831484	2.936945	39.623000
20.856764	2.939553	39.669000
20.881624	2.938862	39.715000
20.907137	2.938610	39.761000
20.932571	2.937348	39.807000
20.957669	2.935213	39.853000
20.983019	2.935436	39.900000
21.007272	2.937626	39.946000
21.032009	2.943510	39.993000
21.056563	2.952521	40.038000
21.081824	2.959869	40.085000
21.107274	2.965133	40.130000
21.132268	2.966955	40.177000
21.157695	2.969126	40.223000
21.240670	2.968060	40.269000
21.265056	2.959909	40.424000
21.464737	2.960743	40.471000
21.490367	2.959496	40.839000
21.514970	2.958341	40.884000
21.540375	2.955594	40.930000
21.565646	2.955392	40.977000
21.590803	2.955301	41.023000
21.615638	2.956892	41.070000
21.641076	2.954074	41.116000
21.665216	2.955351	41.162000
21.690375	2.955164	41.208000
21.715465	2.953565	41.255000
21.740640	2.950167	41.301000
21.830729	2.948750	41.347000
21.855341	2.942901	41.513000
21.945178	2.944459	41.560000
21.970387	2.942769	41.723000
21.994379	2.941381	41.770000
22.019398	2.943000	41.816000
22.044657	2.940619	41.862000
22.069748	2.938549	41.909000
22.094882	2.933790	41.954000
22.120078	2.931665	42.001000
22.144773	2.926839	42.047000
22.169915	2.926961	42.093000
22.193920	2.928086	42.138000
22.218400	2.926961	42.184000
