Sample	2mm tape 
date	07/01/2025
	
Temperature (K)	77.00
Angle (deg.)	0.000000
field / T	0.600000
	
		
Approx. trace time (s)	120.0	
		
Current / A	V1  -sample/ uV	time/s
-0.018141	0.537738	0.000000
-0.018012	0.539044	0.046000
-0.017632	0.543768	0.092000
-0.017915	0.556975	0.138000
-0.018614	0.558562	0.294000
-0.017896	0.563176	0.340000
-0.018233	0.565388	0.387000
-0.017981	0.571919	0.433000
-0.018522	0.589245	0.479000
-0.017956	0.585477	0.525000
-0.017829	0.592093	0.571000
-0.018282	0.615805	0.725000
0.006688	0.621415	0.771000
0.030760	0.627806	0.817000
0.057057	0.635093	0.864000
0.082988	0.635418	0.909000
0.107175	0.636319	0.956000
0.132657	0.646754	1.002000
0.157504	0.666837	1.048000
0.183812	0.668769	1.095000
0.207384	0.678614	1.141000
0.232704	0.677640	1.187000
0.318781	0.702566	1.233000
0.343529	0.710072	1.392000
0.368694	0.718661	1.438000
0.393763	0.724044	1.484000
0.418661	0.733769	1.531000
0.444036	0.733489	1.576000
0.469093	0.739020	1.623000
0.552264	0.754977	1.669000
0.577259	0.777304	1.823000
0.602356	0.779573	1.870000
0.627577	0.786098	1.916000
0.652693	0.795348	1.962000
0.677908	0.787433	2.008000
0.702375	0.793010	2.054000
0.727100	0.801445	2.100000
0.752216	0.810880	2.147000
0.776402	0.818845	2.192000
0.802383	0.816266	2.239000
0.827738	0.825302	2.285000
1.029273	0.858464	2.331000
1.054503	0.851087	2.705000
1.146309	0.858263	2.752000
1.171904	0.866093	2.920000
1.196721	0.875338	2.966000
1.220930	0.873680	3.013000
1.245699	0.875968	3.059000
1.270712	0.885867	3.105000
1.296126	0.868262	3.151000
1.321568	0.879690	3.197000
1.346384	0.875237	3.243000
1.371053	0.872999	3.288000
1.396212	0.875408	3.335000
1.420793	0.874864	3.380000
1.510593	0.879580	3.427000
1.535710	0.888638	3.593000
1.560655	0.888022	3.639000
1.585570	0.895273	3.685000
1.609847	0.886047	3.731000
1.634773	0.893222	3.777000
1.660134	0.883223	3.823000
1.859046	0.879670	3.869000
1.883721	0.883073	4.236000
1.909554	0.881580	4.282000
1.934708	0.882854	4.328000
1.959709	0.886696	4.375000
1.984968	0.883588	4.422000
2.009337	0.880055	4.468000
2.106542	0.882604	4.514000
2.131143	0.873728	4.692000
2.155843	0.877302	4.738000
2.180513	0.880175	4.784000
2.205917	0.881899	4.831000
2.231114	0.881480	4.877000
2.256404	0.879895	4.923000
2.340582	0.877606	4.969000
2.364891	0.890779	5.124000
2.389559	0.891090	5.170000
2.414798	0.896105	5.217000
2.439690	0.896850	5.263000
2.464894	0.900309	5.309000
2.489919	0.905483	5.354000
2.514799	0.921147	5.401000
2.539934	0.908751	5.446000
2.564458	0.909847	5.493000
2.589029	0.917739	5.539000
2.614091	0.923500	5.585000
2.701705	0.928955	5.631000
2.726909	0.945801	5.793000
2.751996	0.946947	5.839000
2.776738	0.951391	5.885000
2.802016	0.953273	5.930000
2.826928	0.955775	5.977000
2.852363	0.965054	6.023000
2.935177	0.958167	6.069000
2.960154	0.971665	6.224000
2.985486	0.979066	6.270000
3.010519	0.986443	6.316000
3.035599	0.986924	6.362000
3.060305	0.984907	6.408000
3.085154	1.004550	6.453000
3.109578	0.979757	6.499000
3.134020	0.993390	6.546000
3.159198	0.994981	6.592000
3.184113	0.997729	6.637000
3.209648	0.999786	6.683000
3.297393	1.002368	6.729000
3.322615	1.003064	6.893000
3.347908	1.007868	6.939000
3.373361	1.018713	6.986000
3.398611	1.015295	7.032000
3.422816	1.014794	7.078000
3.447520	1.025029	7.124000
3.531094	1.024584	7.170000
3.556892	1.034748	7.324000
3.581366	1.042105	7.370000
3.606839	1.043501	7.417000
3.631936	1.055547	7.463000
3.657622	1.062308	7.510000
3.681697	1.065847	7.556000
3.706482	1.072843	7.602000
3.731347	1.077267	7.648000
3.756532	1.084073	7.694000
3.781227	1.097779	7.739000
3.806290	1.096959	7.785000
4.008294	1.170588	7.831000
4.033695	1.167580	8.205000
4.124926	1.182776	8.251000
4.149577	1.216968	8.419000
4.174038	1.190173	8.465000
4.198951	1.211306	8.512000
4.224412	1.218432	8.558000
4.249406	1.216254	8.604000
4.274738	1.228235	8.650000
4.299415	1.243532	8.695000
4.325176	1.246406	8.742000
4.349139	1.241609	8.789000
4.373880	1.244378	8.834000
4.398820	1.249659	8.881000
4.489949	1.260668	8.927000
4.514459	1.262657	9.093000
4.538687	1.267724	9.139000
4.563443	1.273011	9.184000
4.588505	1.281936	9.231000
4.614009	1.273736	9.277000
4.639463	1.274920	9.323000
4.838093	1.278313	9.370000
4.863190	1.282751	9.736000
4.888024	1.279318	9.783000
4.912546	1.282930	9.829000
4.936836	1.284869	9.875000
4.962110	1.276344	9.920000
4.987528	1.278403	9.967000
5.084869	1.286693	10.013000
5.109565	1.272071	10.193000
5.135085	1.277742	10.240000
5.160808	1.280671	10.287000
5.185551	1.284324	10.333000
5.211286	1.285788	10.380000
5.236780	1.284908	10.426000
5.320350	1.287477	10.473000
5.344971	1.295347	10.627000
5.370015	1.296591	10.673000
5.395100	1.291240	10.720000
5.420474	1.296561	10.766000
5.445498	1.292385	10.813000
5.470872	1.297112	10.859000
5.496032	1.299984	10.904000
5.520751	1.296317	10.951000
5.545630	1.296481	10.997000
5.569871	1.293248	11.043000
5.594393	1.304088	11.089000
5.680318	1.306855	11.135000
5.705514	1.303493	11.293000
5.730741	1.318206	11.339000
5.755813	1.310643	11.385000
5.780151	1.314988	11.431000
5.805208	1.313573	11.477000
5.829529	1.317845	11.523000
5.914273	1.318536	11.569000
5.939052	1.326468	11.724000
5.964646	1.329120	11.770000
5.989290	1.321773	11.816000
6.014360	1.330477	11.862000
6.038361	1.329436	11.908000
6.063547	1.332799	11.954000
6.088063	1.335416	12.000000
6.113333	1.329090	12.045000
6.138446	1.333694	12.091000
6.163184	1.338599	12.137000
6.187753	1.341162	12.183000
6.276578	1.354118	12.228000
6.301733	1.336552	12.393000
6.326488	1.345686	12.438000
6.350729	1.347277	12.485000
6.375813	1.355044	12.531000
6.401150	1.347517	12.577000
6.426280	1.349699	12.624000
6.510780	1.356906	12.670000
6.535732	1.340701	12.825000
6.560709	1.346871	12.871000
6.584151	1.340571	12.917000
6.609208	1.351466	12.963000
6.634320	1.342307	13.009000
6.659670	1.338319	13.055000
6.685112	1.324851	13.101000
6.710349	1.370819	13.148000
6.735631	1.343273	13.194000
6.760519	1.343343	13.240000
6.785774	1.343513	13.285000
6.987329	1.325513	13.332000
7.012561	1.319862	13.706000
7.102549	1.315533	13.751000
7.128316	1.300886	13.919000
7.153428	1.296933	13.966000
7.178065	1.288126	14.012000
7.203782	1.283211	14.058000
7.228635	1.280552	14.104000
7.253359	1.280582	14.150000
7.277710	1.272041	14.196000
7.302275	1.267634	14.242000
7.327548	1.274460	14.288000
7.352088	1.259694	14.334000
7.378004	1.262747	14.380000
7.467723	1.254211	14.426000
7.493052	1.237935	14.593000
7.518181	1.231020	14.639000
7.543359	1.226102	14.685000
7.568267	1.227201	14.731000
7.593692	1.224013	14.778000
7.618626	1.220481	14.824000
7.816895	1.221001	14.870000
7.842178	1.211426	15.237000
7.867014	1.209596	15.283000
7.892432	1.204688	15.330000
7.917686	1.201891	15.377000
7.942533	1.200477	15.423000
7.968176	1.200161	15.470000
8.063935	1.204869	15.516000
8.089520	1.194770	15.693000
8.114669	1.198623	15.740000
8.140104	1.198997	15.786000
8.164969	1.181217	15.833000
8.190065	1.194560	15.878000
8.214361	1.191896	15.924000
8.298212	1.192241	15.971000
8.323592	1.188518	16.125000
8.348675	1.191437	16.171000
8.373775	1.181742	16.218000
8.398554	1.187039	16.264000
8.423207	1.177475	16.310000
8.447405	1.181452	16.355000
8.472258	1.180618	16.401000
8.497880	1.177959	16.448000
8.522551	1.182251	16.493000
8.547677	1.168071	16.539000
8.572721	1.180668	16.585000
8.660035	1.189009	16.631000
8.685225	1.184522	16.793000
8.710028	1.181019	16.839000
8.734634	1.173167	16.885000
8.758743	1.183666	16.931000
8.784072	1.186210	16.977000
8.809275	1.182502	17.022000
8.893784	1.182677	17.069000
8.918395	1.187825	17.224000
8.943096	1.190988	17.269000
8.967716	1.181423	17.316000
8.992078	1.186440	17.361000
9.018132	1.190562	17.407000
9.042689	1.186671	17.454000
9.068240	1.184790	17.499000
9.093025	1.166857	17.546000
9.117572	1.179444	17.592000
9.142726	1.179575	17.638000
9.167164	1.192522	17.684000
9.255983	1.175325	17.730000
9.280747	1.175651	17.893000
9.305056	1.171494	17.939000
9.330653	1.177466	17.986000
9.355690	1.171913	18.032000
9.380754	1.175781	18.078000
9.405828	1.165312	18.124000
9.490041	1.162277	18.170000
9.514295	1.150394	18.325000
9.539337	1.155537	18.371000
9.564384	1.162518	18.418000
9.589586	1.148346	18.464000
9.615245	1.144104	18.511000
9.639982	1.146583	18.556000
9.665093	1.146323	18.603000
9.689865	1.141169	18.648000
9.714221	1.153043	18.694000
9.738743	1.139965	18.740000
9.763928	1.142910	18.785000
9.966724	1.132090	18.832000
9.990762	1.132280	19.205000
10.082792	1.131206	19.251000
10.107320	1.127843	19.419000
10.133138	1.123789	19.466000
10.157728	1.124549	19.512000
10.182631	1.130220	19.557000
10.206649	1.130995	19.603000
10.232028	1.126668	19.651000
10.257524	1.128747	19.697000
10.282445	1.124459	19.743000
10.307728	1.123719	19.789000
10.332846	1.124160	19.835000
10.357780	1.126907	19.881000
10.446991	1.125474	19.927000
10.471997	1.125504	20.092000
10.497390	1.126549	20.139000
10.522493	1.122835	20.185000
10.547152	1.121076	20.230000
10.571816	1.126198	20.277000
10.596819	1.129486	20.324000
10.795037	1.120607	20.369000
10.820061	1.143568	20.736000
10.845435	1.148841	20.782000
10.870272	1.147656	20.828000
10.895377	1.160089	20.874000
10.920009	1.151659	20.920000
10.944008	1.142679	20.965000
10.969109	1.154822	21.011000
11.054048	1.160975	21.057000
11.079598	1.155887	21.214000
11.104718	1.154742	21.261000
11.130135	1.157801	21.307000
11.155238	1.164077	21.353000
11.179913	1.167115	21.399000
11.273611	1.165632	21.446000
11.298494	1.163492	21.619000
11.323224	1.163412	21.666000
11.348729	1.161789	21.711000
11.373669	1.159049	21.758000
11.398744	1.165492	21.803000
11.423793	1.166886	21.849000
11.448671	1.163273	21.895000
11.473625	1.168744	21.942000
11.498184	1.179069	21.988000
11.522901	1.160059	22.035000
11.548373	1.156157	22.081000
11.638641	1.183981	22.126000
11.662765	1.183941	22.293000
11.687611	1.180828	22.339000
11.712955	1.192301	22.385000
11.738385	1.198253	22.431000
11.763214	1.194370	22.477000
11.788237	1.201921	22.523000
11.871512	1.209087	22.569000
11.896161	1.229020	22.723000
11.921409	1.220430	22.770000
11.946637	1.229249	22.816000
11.971505	1.222598	22.862000
11.996844	1.223279	22.908000
12.022029	1.223538	22.953000
12.046941	1.226402	23.000000
12.071898	1.238285	23.046000
12.095912	1.243421	23.092000
12.121194	1.245371	23.138000
12.146292	1.248239	23.185000
12.233715	1.253632	23.231000
12.259254	1.239610	23.393000
12.284258	1.256975	23.439000
12.309265	1.253762	23.485000
12.334012	1.254266	23.531000
12.359337	1.251434	23.577000
12.384126	1.258239	23.623000
12.467119	1.262716	23.669000
12.492315	1.266079	23.824000
12.517399	1.271127	23.870000
12.543032	1.272562	23.916000
12.567632	1.282385	23.962000
12.592326	1.278443	24.008000
12.616525	1.292275	24.053000
12.641196	1.287948	24.099000
12.666466	1.291779	24.145000
12.691234	1.292959	24.191000
12.716247	1.291341	24.237000
12.741851	1.299641	24.283000
12.944491	1.338894	24.330000
12.970158	1.342298	24.706000
13.061800	1.346692	24.752000
13.086081	1.371770	24.920000
13.110177	1.370013	24.966000
13.135245	1.372025	25.012000
13.160531	1.377050	25.058000
13.185993	1.371985	25.104000
13.211225	1.384056	25.151000
13.236399	1.382689	25.197000
13.261526	1.390197	25.243000
13.286746	1.390812	25.289000
13.311153	1.394215	25.335000
13.335674	1.414089	25.381000
13.426037	1.429062	25.427000
13.451424	1.428177	25.594000
13.476174	1.427726	25.639000
13.500772	1.427676	25.686000
13.525747	1.430229	25.732000
13.551244	1.437595	25.778000
13.576144	1.442220	25.825000
13.775383	1.446774	25.871000
13.800461	1.485565	26.239000
13.826294	1.480300	26.285000
13.850811	1.480034	26.331000
13.875827	1.492731	26.377000
13.900845	1.501244	26.424000
13.924863	1.499126	26.470000
14.021505	1.528931	26.516000
14.046065	1.527957	26.694000
14.071230	1.532844	26.740000
14.096365	1.538138	26.786000
14.121689	1.542985	26.832000
14.146369	1.541671	26.877000
14.171499	1.542429	26.924000
14.254217	1.546698	26.969000
14.279098	1.555593	27.124000
14.304820	1.554568	27.170000
14.329414	1.555703	27.216000
14.354823	1.552300	27.262000
14.380220	1.559546	27.309000
14.405127	1.559884	27.355000
14.430023	1.554368	27.401000
14.453999	1.562213	27.447000
14.479190	1.562453	27.493000
14.504032	1.569925	27.539000
14.529384	1.563537	27.584000
14.616920	1.570704	27.631000
14.642189	1.561885	27.793000
14.666957	1.563279	27.839000
14.692551	1.556481	27.886000
14.717541	1.574993	27.931000
14.742291	1.574692	27.978000
14.766994	1.569011	28.023000
14.850263	1.575301	28.070000
14.875343	1.571978	28.223000
14.900624	1.567906	28.270000
14.925927	1.570844	28.316000
14.950693	1.567576	28.362000
14.975499	1.569725	28.408000
15.000988	1.573263	28.454000
15.025185	1.569710	28.501000
15.050542	1.564103	28.546000
15.075938	1.555813	28.593000
15.101389	1.556361	28.639000
15.126667	1.553734	28.686000
15.213862	1.571289	28.731000
15.238882	1.552459	28.893000
15.263734	1.556846	28.939000
15.288869	1.556946	28.985000
15.312674	1.556866	29.030000
15.337238	1.553433	29.076000
15.362629	1.554457	29.122000
15.446869	1.554918	29.168000
15.471888	1.554708	29.322000
15.496528	1.547047	29.368000
15.521050	1.534090	29.415000
15.546255	1.554447	29.461000
15.571260	1.552409	29.508000
15.596684	1.545832	29.554000
15.621440	1.543255	29.601000
15.647149	1.536447	29.647000
15.672067	1.537947	29.693000
15.697315	1.531200	29.739000
15.722488	1.534270	29.785000
15.924756	1.535965	29.831000
15.950125	1.533385	30.206000
16.039534	1.540345	30.252000
16.064737	1.534441	30.420000
16.089957	1.536892	30.465000
16.103430	1.545852	30.512000
16.140110	1.540726	30.557000
16.165502	1.545862	30.603000
16.190730	1.544748	30.650000
16.214914	1.540030	30.695000
16.239547	1.545263	30.742000
16.264071	1.543315	30.787000
16.289246	1.544559	30.834000
16.314659	1.551964	30.880000
16.405175	1.538577	30.926000
16.429705	1.535445	31.093000
16.455168	1.542764	31.140000
16.480053	1.535815	31.186000
16.505335	1.529770	31.232000
16.530466	1.527571	31.278000
16.555454	1.528555	31.324000
16.754957	1.529330	31.370000
16.779792	1.522904	31.737000
16.803964	1.521538	31.783000
16.828561	1.516082	31.829000
16.853496	1.521267	31.875000
16.878394	1.514000	31.921000
16.903559	1.517649	31.967000
17.001091	1.504632	32.013000
17.025907	1.501489	32.193000
17.051152	1.501650	32.239000
17.076393	1.497365	32.285000
17.101483	1.496289	32.332000
17.126464	1.495013	32.378000
17.151233	1.496814	32.424000
17.234551	1.486921	32.470000
17.259363	1.472768	32.625000
17.284785	1.474389	32.671000
17.309974	1.472117	32.717000
17.335335	1.468314	32.763000
17.360327	1.466337	32.810000
17.384463	1.463975	32.855000
17.409194	1.455892	32.901000
17.434098	1.443346	32.948000
17.459726	1.452724	32.994000
17.484438	1.450652	33.040000
17.509342	1.441449	33.086000
17.596624	1.437485	33.132000
17.622206	1.434822	33.293000
17.647335	1.432310	33.340000
17.672688	1.430559	33.386000
17.697969	1.423738	33.433000
17.722212	1.419969	33.478000
17.746549	1.412482	33.525000
17.830941	1.403949	33.571000
17.855929	1.397433	33.725000
17.881052	1.393845	33.770000
17.905608	1.385442	33.817000
17.930307	1.383625	33.863000
17.954934	1.376333	33.909000
17.979840	1.384416	33.954000
18.005215	1.362301	34.001000
18.030322	1.374657	34.047000
18.055509	1.367640	34.093000
18.080511	1.361390	34.140000
18.106062	1.361154	34.186000
18.193054	1.345820	34.232000
18.218123	1.337502	34.393000
18.242732	1.329675	34.440000
18.266942	1.340750	34.486000
18.292090	1.347877	34.532000
18.317227	1.334930	34.577000
18.342449	1.323825	34.625000
18.426975	1.326577	34.670000
18.451789	1.320226	34.825000
18.475971	1.323079	34.871000
18.500364	1.325251	34.916000
18.525679	1.324215	34.963000
18.550907	1.330035	35.009000
18.576119	1.317359	35.054000
18.601326	1.337867	35.102000
18.626265	1.312757	35.147000
18.651345	1.318870	35.194000
18.676057	1.318800	35.240000
18.701027	1.314686	35.286000
18.903555	1.330166	35.332000
18.928649	1.317825	35.706000
19.018809	1.318285	35.751000
19.044541	1.312068	35.920000
19.068953	1.319391	35.965000
19.094892	1.318656	36.012000
19.119983	1.308130	36.059000
19.144439	1.301930	36.105000
19.169178	1.309369	36.151000
19.193872	1.295718	36.197000
19.219088	1.303788	36.243000
19.244164	1.302473	36.288000
19.269030	1.296872	36.335000
19.294380	1.295032	36.380000
19.383788	1.277617	36.427000
19.409046	1.277366	36.594000
19.433984	1.276084	36.640000
19.459236	1.270320	36.685000
19.483840	1.274709	36.730000
19.508619	1.254936	36.777000
19.533270	1.265565	36.823000
19.731712	1.254766	36.868000
19.757029	1.238185	37.236000
19.782498	1.238664	37.283000
19.807694	1.231259	37.330000
19.832790	1.225247	37.376000
19.858192	1.223118	37.423000
19.882965	1.224002	37.468000
19.979900	1.222015	37.514000
20.004790	1.210292	37.693000
20.029892	1.209345	37.739000
20.054514	1.203076	37.784000
20.078803	1.210855	37.831000
20.103682	1.217318	37.876000
20.128888	1.204060	37.923000
20.213067	1.209891	37.969000
20.238390	1.197537	38.124000
20.263281	1.201811	38.170000
20.287950	1.193987	38.216000
20.312455	1.200476	38.262000
20.337707	1.198514	38.309000
20.362595	1.207057	38.354000
20.387757	1.196533	38.401000
20.412953	1.196463	38.447000
20.438239	1.194540	38.493000
20.463466	1.204944	38.539000
20.488147	1.199478	38.586000
20.575800	1.213834	38.632000
20.601084	1.205393	38.793000
20.626255	1.211455	38.840000
20.650095	1.214908	38.886000
20.674905	1.223822	38.932000
20.700523	1.219756	38.978000
20.725629	1.226231	39.024000
20.809851	1.235052	39.070000
20.834586	1.251842	39.225000
20.858962	1.253056	39.271000
20.883368	1.265883	39.317000
20.908714	1.266679	39.364000
20.933991	1.275288	39.409000
20.958666	1.280400	39.455000
20.984143	1.286182	39.501000
21.009125	1.295222	39.547000
21.033987	1.279636	39.593000
21.058639	1.296741	39.640000
21.082954	1.313222	39.686000
21.170808	1.325822	39.731000
21.195219	1.315903	39.893000
21.220972	1.321953	39.939000
21.245972	1.333954	39.986000
21.271047	1.319986	40.031000
21.296127	1.319040	40.077000
21.320999	1.315712	40.124000
21.404074	1.325251	40.170000
21.428876	1.315552	40.324000
21.454787	1.325571	40.370000
21.479140	1.322788	40.416000
21.504297	1.322508	40.462000
21.529718	1.326127	40.508000
21.554835	1.314416	40.554000
21.579247	1.325801	40.601000
21.603518	1.323439	40.646000
21.628412	1.321118	40.692000
21.653560	1.320096	40.739000
21.679075	1.305031	40.785000
21.881728	1.313542	40.831000
21.906040	1.306446	41.206000
21.998238	1.305112	41.252000
22.023217	1.304057	41.420000
22.048213	1.305935	41.465000
22.072756	1.302258	41.512000
22.096772	1.299640	41.558000
22.121797	1.295212	41.603000
22.146966	1.289815	41.649000
22.172537	1.289111	41.696000
22.197543	1.299320	41.742000
22.222739	1.283683	41.788000
22.247032	1.280561	41.834000
22.272174	1.285178	41.880000
22.362637	1.278926	41.926000
22.388116	1.274399	42.094000
22.413442	1.284968	42.140000
22.438104	1.273015	42.186000
22.462958	1.273984	42.232000
22.488020	1.274529	42.279000
22.513314	1.275934	42.325000
22.711958	1.283240	42.371000
22.737069	1.280041	42.738000
22.762527	1.277912	42.785000
22.787300	1.286123	42.830000
22.812467	1.280702	42.876000
22.837248	1.291240	42.922000
22.860978	1.288087	42.967000
22.959359	1.291180	43.013000
22.983827	1.301003	43.193000
23.008186	1.310893	43.240000
23.033405	1.309548	43.286000
23.058662	1.305131	43.332000
23.084150	1.307720	43.378000
23.109150	1.315251	43.424000
23.193138	1.319611	43.470000
23.218396	1.319590	43.625000
23.242600	1.321432	43.671000
23.267526	1.321873	43.717000
